*****  MODTRAN3 Version 1.3  12/1/95  *****
0 CARD 1  *****T   1    3    1    0    0    0    0    0    0    0    0    0   -1   0.000  -1.00
 co2mx co2rat ch4rat h2orat t_o3rat s_o3rat scalefreon    800.00000       2.4242425       1.0000000       1.0000000       1.0000000       1.0000000       1.0000000    
0 CARD 2  *****    0    0    0    0    0    0     0.000     0.000     0.000     0.000     0.000
0 CARD 3  *****    70.000     0.000   180.000     0.000     0.000     0.000    0
0 CARD 4  *****         2      2200         2         3
0 PROGRAM WILL COMPUTE RADIANCE                
0 ATMOSPHERIC MODEL
          TEMPERATURE =    1     TROPICAL MODEL      
          WATER VAPOR =    1     TROPICAL MODEL      
          OZONE       =    1     TROPICAL MODEL      
                      M4 =     1 M5 =     1 M6 =     1 MDEF =     1
0 SLANT PATH TO SPACE
          H1    =     70.000 KM
          HMIN  =      0.000 KM
          ANGLE =    180.000 DEG
0 FREQUENCY RANGE
             IV1 =         2 CM-1  (   5000.00 MICROMETERS)
             IV2 =      2200 CM-1  (      4.55 MICROMETERS)
             IDV =         2 CM-1
           IFWHM =         3 CM-1
1
  ATMOSPHERIC PROFILES

   I     Z       P       T        N2       CNTMSLF MOL SCAT     N-1     O3 (UV)  O2 (UV)
        (KM)    (MB)    (K)            (MOL/CM2 KM)   (-)       (-)  (ATM CM/KM) (ATM CM/KM)

   1     0.00 1013.000  299.7  7.622E-01 1.623E+21 9.112E-01 2.609E-04 2.612E-03 3.342E+04
   2     1.00  904.000  293.7  6.321E-01 7.602E+20 8.298E-01 2.379E-04 2.612E-03 2.927E+04
   3     2.00  805.000  287.7  5.223E-01 3.892E+20 7.543E-01 2.164E-04 2.519E-03 2.562E+04
   4     3.00  715.000  283.7  4.238E-01 9.924E+19 6.794E-01 1.951E-04 2.379E-03 2.219E+04
   5     4.00  633.000  277.0  3.484E-01 2.176E+19 6.160E-01 1.771E-04 2.192E-03 1.945E+04
   6     5.00  559.000  270.3  2.853E-01 1.012E+19 5.575E-01 1.603E-04 2.099E-03 1.703E+04
   7     6.00  492.000  263.6  2.324E-01 3.249E+18 5.032E-01 1.447E-04 2.006E-03 1.490E+04
   8     7.00  432.000  257.0  1.885E-01 9.917E+17 4.531E-01 1.303E-04 1.912E-03 1.302E+04
   9     8.00  378.000  250.3  1.522E-01 2.810E+17 4.071E-01 1.171E-04 1.819E-03 1.138E+04
  10     9.00  329.000  243.6  1.217E-01 6.471E+16 3.641E-01 1.047E-04 1.819E-03 9.902E+03
  11    10.00  286.000  237.0  9.716E-02 1.125E+16 3.253E-01 9.356E-05 1.819E-03 8.629E+03
  12    11.00  247.000  230.1  7.688E-02 1.299E+15 2.894E-01 8.322E-05 1.912E-03 7.496E+03
  13    12.00  213.000  223.6  6.054E-02 1.618E+14 2.568E-01 7.385E-05 2.006E-03 6.507E+03
  14    13.00  182.000  217.0  4.693E-02 1.456E+13 2.261E-01 6.503E-05 2.099E-03 5.608E+03
  15    14.00  156.000  210.3  3.671E-02 4.497E+12 2.000E-01 5.751E-05 2.098E-03 4.870E+03
  16    15.00  132.000  203.7  2.802E-02 1.419E+12 1.747E-01 5.024E-05 2.193E-03 4.178E+03
  17    16.00  111.000  197.0  2.118E-02 6.036E+11 1.519E-01 4.368E-05 2.192E-03 3.572E+03
  18    17.00   93.700  194.8  1.544E-02 4.110E+11 1.297E-01 3.729E-05 3.240E-03 3.000E+03
  19    18.00   78.900  198.8  1.051E-02 2.516E+11 1.070E-01 3.077E-05 5.346E-03 2.433E+03
  20    19.00   66.600  202.7  7.202E-03 1.542E+11 8.857E-02 2.547E-05 8.409E-03 1.986E+03
  21    20.00   56.500  206.7  4.985E-03 1.067E+11 7.369E-02 2.119E-05 1.031E-02 1.633E+03
  22    21.00   48.000  210.7  3.463E-03 7.699E+10 6.141E-02 1.766E-05 1.105E-02 1.348E+03
  23    22.00   40.900  214.6  2.423E-03 6.016E+10 5.138E-02 1.478E-05 1.232E-02 1.119E+03
  24    23.00   35.000  217.0  1.736E-03 4.622E+10 4.348E-02 1.250E-05 1.477E-02 9.409E+02
  25    24.00   30.000  219.2  1.250E-03 4.052E+10 3.689E-02 1.061E-05 1.585E-02 7.942E+02
  26    25.00   25.700  221.4  8.990E-04 3.007E+10 3.129E-02 9.000E-06 1.689E-02 6.705E+02
  27    30.00   12.200  232.3  1.840E-04 9.323E+09 1.416E-02 4.072E-06 1.316E-02 2.992E+02
  28    35.00    6.000  243.1  4.064E-05 2.723E+09 6.654E-03 1.914E-06 6.450E-03 1.397E+02
  29    40.00    3.050  254.0  9.620E-06 8.236E+08 3.237E-03 9.310E-07 2.426E-03 6.779E+01
  30    45.00    1.590  264.8  2.405E-06 2.475E+08 1.619E-03 4.655E-07 7.279E-04 3.385E+01
  31    50.00    0.854  270.2  6.665E-07 7.597E+07 8.520E-04 2.450E-07 2.384E-04 1.781E+01
  32    70.00    0.058  218.9  4.684E-09 3.003E+05 7.143E-05 2.054E-08 2.141E-06 1.492E+00
  33   100.00    0.000  190.7  1.532E-13 7.763E-02 4.085E-07 1.175E-10 1.633E-08 6.532E-03
1
  ATMOSPHERIC PROFILES

   I     Z       P       T      CNTMFRN     HNO3    AEROSOL 1 AEROSOL 2 AEROSOL 3 AEROSOL 4 AER1*RH   CIRRUS         RH
        (KM)    (MB)    (K)   MOL/CM2 KM ATM CM/KM   (-)       (-)       (-)       (-)       (-)       (-)      (PERCNT)

   1     0.00 1013.000  299.7  6.101E+22 0.000E+00 0.000E+00 0.000E+00 0.000E+00 0.000E+00 0.000E+00 0.000E+00 7.553E+01
   2     1.00  904.000  293.7  3.828E+22 0.000E+00 0.000E+00 0.000E+00 0.000E+00 0.000E+00 0.000E+00 0.000E+00 7.277E+01
   3     2.00  805.000  287.7  2.500E+22 0.000E+00 0.000E+00 0.000E+00 0.000E+00 0.000E+00 0.000E+00 0.000E+00 7.451E+01
   4     3.00  715.000  283.7  1.145E+22 0.000E+00 0.000E+00 0.000E+00 0.000E+00 0.000E+00 0.000E+00 0.000E+00 4.825E+01
   5     4.00  633.000  277.0  4.881E+21 0.000E+00 0.000E+00 0.000E+00 0.000E+00 0.000E+00 0.000E+00 0.000E+00 3.491E+01
   6     5.00  559.000  270.3  3.015E+21 0.000E+00 0.000E+00 0.000E+00 0.000E+00 0.000E+00 0.000E+00 0.000E+00 3.771E+01
   7     6.00  492.000  263.6  1.544E+21 0.000E+00 0.000E+00 0.000E+00 0.000E+00 0.000E+00 0.000E+00 0.000E+00 3.479E+01
   8     7.00  432.000  257.0  7.690E+20 0.000E+00 0.000E+00 0.000E+00 0.000E+00 0.000E+00 0.000E+00 0.000E+00 3.198E+01
   9     8.00  378.000  250.3  3.680E+20 0.000E+00 0.000E+00 0.000E+00 0.000E+00 0.000E+00 0.000E+00 0.000E+00 2.947E+01
  10     9.00  329.000  243.6  1.580E+20 0.000E+00 0.000E+00 0.000E+00 0.000E+00 0.000E+00 0.000E+00 0.000E+00 2.535E+01
  11    10.00  286.000  237.0  5.886E+19 0.000E+00 0.000E+00 0.000E+00 0.000E+00 0.000E+00 0.000E+00 0.000E+00 1.951E+01
  12    11.00  247.000  230.1  1.780E+19 0.000E+00 0.000E+00 0.000E+00 0.000E+00 0.000E+00 0.000E+00 0.000E+00 1.315E+01
  13    12.00  213.000  223.6  5.573E+18 0.000E+00 0.000E+00 0.000E+00 0.000E+00 0.000E+00 0.000E+00 0.000E+00 9.253E+00
  14    13.00  182.000  217.0  1.472E+18 0.000E+00 0.000E+00 0.000E+00 0.000E+00 0.000E+00 0.000E+00 0.000E+00 5.881E+00
  15    14.00  156.000  210.3  7.236E+17 0.000E+00 0.000E+00 0.000E+00 0.000E+00 0.000E+00 0.000E+00 0.000E+00 7.410E+00
  16    15.00  132.000  203.7  3.551E+17 0.000E+00 0.000E+00 0.000E+00 0.000E+00 0.000E+00 0.000E+00 0.000E+00 9.923E+00
  17    16.00  111.000  197.0  2.014E+17 0.000E+00 0.000E+00 0.000E+00 0.000E+00 0.000E+00 0.000E+00 0.000E+00 1.677E+01
  18    17.00   93.700  194.8  1.419E+17 0.000E+00 0.000E+00 0.000E+00 0.000E+00 0.000E+00 0.000E+00 0.000E+00 1.924E+01
  19    18.00   78.900  198.8  9.158E+16 0.000E+00 0.000E+00 0.000E+00 0.000E+00 0.000E+00 0.000E+00 0.000E+00 8.321E+00
  20    19.00   66.600  202.7  5.934E+16 0.000E+00 0.000E+00 0.000E+00 0.000E+00 0.000E+00 0.000E+00 0.000E+00 3.752E+00
  21    20.00   56.500  206.7  4.107E+16 0.000E+00 0.000E+00 0.000E+00 0.000E+00 0.000E+00 0.000E+00 0.000E+00 1.818E+00
  22    21.00   48.000  210.7  2.908E+16 0.000E+00 0.000E+00 0.000E+00 0.000E+00 0.000E+00 0.000E+00 0.000E+00 9.217E-01
  23    22.00   40.900  214.6  2.150E+16 0.000E+00 0.000E+00 0.000E+00 0.000E+00 0.000E+00 0.000E+00 0.000E+00 5.033E-01
  24    23.00   35.000  217.0  1.595E+16 0.000E+00 0.000E+00 0.000E+00 0.000E+00 0.000E+00 0.000E+00 0.000E+00 3.313E-01
  25    24.00   30.000  219.2  1.267E+16 0.000E+00 0.000E+00 0.000E+00 0.000E+00 0.000E+00 0.000E+00 0.000E+00 2.401E-01
  26    25.00   25.700  221.4  9.258E+15 0.000E+00 0.000E+00 0.000E+00 0.000E+00 0.000E+00 0.000E+00 0.000E+00 1.611E-01
  27    30.00   12.200  232.3  2.333E+15 0.000E+00 0.000E+00 0.000E+00 0.000E+00 0.000E+00 0.000E+00 0.000E+00 2.817E-02
  28    35.00    6.000  243.1  5.924E+14 0.000E+00 0.000E+00 0.000E+00 0.000E+00 0.000E+00 0.000E+00 0.000E+00 5.440E-03
  29    40.00    3.050  254.0  1.585E+14 0.000E+00 0.000E+00 0.000E+00 0.000E+00 0.000E+00 0.000E+00 0.000E+00 1.173E-03
  30    45.00    1.590  264.8  4.345E+13 0.000E+00 0.000E+00 0.000E+00 0.000E+00 0.000E+00 0.000E+00 0.000E+00 2.777E-04
  31    50.00    0.854  270.2  1.267E+13 0.000E+00 0.000E+00 0.000E+00 0.000E+00 0.000E+00 0.000E+00 0.000E+00 1.041E-04
  32    70.00    0.058  218.9  6.679E+10 0.000E+00 0.000E+00 0.000E+00 0.000E+00 0.000E+00 0.000E+00 0.000E+00 6.767E-04
  33   100.00    0.000  190.7  1.942E+05 0.000E+00 0.000E+00 0.000E+00 0.000E+00 0.000E+00 0.000E+00 0.000E+00 1.583E-05
1
  ATMOSPHERIC PROFILES

   I      Z       P       T      H2O      O3       CO2      CO       CH4      N2O      O2       NH3      NO       NO2      SO2
         (KM)    (MB)    (K)  (                                    MBAR                                                       )
   1     0.00 1013.000  299.7  1.90E+01 2.87E-02 8.00E+02 0.00E+00 1.70E+00 0.00E+00 2.09E+05 0.00E+00 0.00E+00 0.00E+00 0.00E+00
   2     1.00  904.000  293.7  1.30E+01 3.15E-02 8.00E+02 0.00E+00 1.70E+00 0.00E+00 2.09E+05 0.00E+00 0.00E+00 0.00E+00 0.00E+00
   3     2.00  805.000  287.7  9.29E+00 3.34E-02 8.00E+02 0.00E+00 1.70E+00 0.00E+00 2.09E+05 0.00E+00 0.00E+00 0.00E+00 0.00E+00
   4     3.00  715.000  283.7  4.69E+00 3.50E-02 8.00E+02 0.00E+00 1.70E+00 0.00E+00 2.09E+05 0.00E+00 0.00E+00 0.00E+00 0.00E+00
   5     4.00  633.000  277.0  2.20E+00 3.56E-02 8.00E+02 0.00E+00 1.70E+00 0.00E+00 2.09E+05 0.00E+00 0.00E+00 0.00E+00 0.00E+00
   6     5.00  559.000  270.3  1.50E+00 3.77E-02 8.00E+02 0.00E+00 1.70E+00 0.00E+00 2.09E+05 0.00E+00 0.00E+00 0.00E+00 0.00E+00
   7     6.00  492.000  263.6  8.49E-01 3.99E-02 8.00E+02 0.00E+00 1.70E+00 0.00E+00 2.09E+05 0.00E+00 0.00E+00 0.00E+00 0.00E+00
   8     7.00  432.000  257.0  4.69E-01 4.22E-02 8.00E+02 0.00E+00 1.70E+00 0.00E+00 2.09E+05 0.00E+00 0.00E+00 0.00E+00 0.00E+00
   9     8.00  378.000  250.3  2.50E-01 4.47E-02 8.00E+02 0.00E+00 1.70E+00 0.00E+00 2.09E+05 0.00E+00 0.00E+00 0.00E+00 0.00E+00
  10     9.00  329.000  243.6  1.20E-01 5.00E-02 8.00E+02 0.00E+00 1.69E+00 0.00E+00 2.09E+05 0.00E+00 0.00E+00 0.00E+00 0.00E+00
  11    10.00  286.000  237.0  5.00E-02 5.60E-02 8.00E+02 0.00E+00 1.68E+00 0.00E+00 2.09E+05 0.00E+00 0.00E+00 0.00E+00 0.00E+00
  12    11.00  247.000  230.1  1.70E-02 6.61E-02 8.00E+02 0.00E+00 1.67E+00 0.00E+00 2.09E+05 0.00E+00 0.00E+00 0.00E+00 0.00E+00
  13    12.00  213.000  223.6  5.99E-03 7.81E-02 8.00E+02 0.00E+00 1.66E+00 0.00E+00 2.09E+05 0.00E+00 0.00E+00 0.00E+00 0.00E+00
  14    13.00  182.000  217.0  1.80E-03 9.29E-02 8.00E+02 0.00E+00 1.64E+00 0.00E+00 2.09E+05 0.00E+00 0.00E+00 0.00E+00 0.00E+00
  15    14.00  156.000  210.3  9.99E-04 1.05E-01 8.00E+02 0.00E+00 1.63E+00 0.00E+00 2.09E+05 0.00E+00 0.00E+00 0.00E+00 0.00E+00
  16    15.00  132.000  203.7  5.61E-04 1.26E-01 8.00E+02 0.00E+00 1.61E+00 0.00E+00 2.09E+05 0.00E+00 0.00E+00 0.00E+00 0.00E+00
  17    16.00  111.000  197.0  3.66E-04 1.44E-01 8.00E+02 0.00E+00 1.58E+00 0.00E+00 2.09E+05 0.00E+00 0.00E+00 0.00E+00 0.00E+00
  18    17.00   93.700  194.8  3.02E-04 2.50E-01 8.00E+02 0.00E+00 1.55E+00 0.00E+00 2.09E+05 0.00E+00 0.00E+00 0.00E+00 0.00E+00
  19    18.00   78.900  198.8  2.36E-04 5.00E-01 8.00E+02 0.00E+00 1.52E+00 0.00E+00 2.09E+05 0.00E+00 0.00E+00 0.00E+00 0.00E+00
  20    19.00   66.600  202.7  1.85E-04 9.50E-01 8.00E+02 0.00E+00 1.48E+00 0.00E+00 2.09E+05 0.00E+00 0.00E+00 0.00E+00 0.00E+00
  21    20.00   56.500  206.7  1.54E-04 1.40E+00 8.00E+02 0.00E+00 1.42E+00 0.00E+00 2.09E+05 0.00E+00 0.00E+00 0.00E+00 0.00E+00
  22    21.00   48.000  210.7  1.31E-04 1.80E+00 8.00E+02 0.00E+00 1.36E+00 0.00E+00 2.09E+05 0.00E+00 0.00E+00 0.00E+00 0.00E+00
  23    22.00   40.900  214.6  1.16E-04 2.40E+00 8.00E+02 0.00E+00 1.27E+00 0.00E+00 2.09E+05 0.00E+00 0.00E+00 0.00E+00 0.00E+00
  24    23.00   35.000  217.0  1.01E-04 3.40E+00 8.00E+02 0.00E+00 1.19E+00 0.00E+00 2.09E+05 0.00E+00 0.00E+00 0.00E+00 0.00E+00
  25    24.00   30.000  219.2  9.48E-05 4.30E+00 8.00E+02 0.00E+00 1.12E+00 0.00E+00 2.09E+05 0.00E+00 0.00E+00 0.00E+00 0.00E+00
  26    25.00   25.700  221.4  8.17E-05 5.40E+00 8.00E+02 0.00E+00 1.05E+00 0.00E+00 2.09E+05 0.00E+00 0.00E+00 0.00E+00 0.00E+00
  27    30.00   12.200  232.3  4.55E-05 9.30E+00 8.00E+02 0.00E+00 9.14E-01 0.00E+00 2.09E+05 0.00E+00 0.00E+00 0.00E+00 0.00E+00
  28    35.00    6.000  243.1  2.46E-05 9.70E+00 8.00E+02 0.00E+00 7.46E-01 0.00E+00 2.09E+05 0.00E+00 0.00E+00 0.00E+00 0.00E+00
  29    40.00    3.050  254.0  1.35E-05 7.50E+00 8.00E+02 0.00E+00 5.64E-01 0.00E+00 2.09E+05 0.00E+00 0.00E+00 0.00E+00 0.00E+00
  30    45.00    1.590  264.8  7.41E-06 4.50E+00 8.00E+02 0.00E+00 3.63E-01 0.00E+00 2.09E+05 0.00E+00 0.00E+00 0.00E+00 0.00E+00
  31    50.00    0.854  270.2  4.11E-06 2.80E+00 8.00E+02 0.00E+00 2.10E-01 0.00E+00 2.09E+05 0.00E+00 0.00E+00 0.00E+00 0.00E+00
  32    70.00    0.058  218.9  2.58E-07 3.00E-01 8.00E+02 0.00E+00 1.50E-01 0.00E+00 2.09E+05 0.00E+00 0.00E+00 0.00E+00 0.00E+00
  33   100.00    0.000  190.7  1.31E-10 4.00E-01 4.73E+02 0.00E+00 1.20E-01 0.00E+00 1.60E+05 0.00E+00 0.00E+00 0.00E+00 0.00E+00
1
  ATMOSPHERIC PROFILES

   I      Z       P       T     CFC-11   CFC-12   CFC-13   CFC-14   CFC-22   CFC-113  CFC-114  CFC-115  CLONO2    HNO4    CHCL2F 
                                 CCL4     N2O5  
         (KM)    (MB)    (K)  (                                 ATM CM/KM                                                     )
   1     0.00 1013.000  299.7  1.27E-05 2.19E-05 9.11E-14 9.11E-14 5.46E-06 1.73E-06 1.09E-06 9.11E-14 5.24E-07 3.95E-08 9.11E-14
                               1.18E-05 2.20E-11
   2     1.00  904.000  293.7  1.16E-05 1.99E-05 8.29E-14 8.29E-14 4.97E-06 1.58E-06 9.95E-07 8.29E-14 4.25E-07 1.77E-07 8.29E-14
                               1.08E-05 7.91E-11
   3     2.00  805.000  287.7  1.06E-05 1.81E-05 7.54E-14 7.54E-14 4.52E-06 1.43E-06 9.05E-07 7.54E-14 3.40E-07 2.89E-07 7.54E-14
                               9.80E-06 1.26E-10
   4     3.00  715.000  283.7  9.51E-06 1.63E-05 6.79E-14 6.79E-14 4.06E-06 1.29E-06 8.15E-07 6.79E-14 2.64E-07 3.76E-07 6.79E-14
                               8.83E-06 1.61E-10
   5     4.00  633.000  277.0  8.62E-06 1.48E-05 6.16E-14 6.16E-14 3.68E-06 1.17E-06 7.39E-07 6.16E-14 2.01E-07 4.46E-07 6.16E-14
                               8.00E-06 1.90E-10
   6     5.00  559.000  270.3  7.80E-06 1.34E-05 5.57E-14 5.57E-14 3.33E-06 1.06E-06 6.69E-07 5.57E-14 1.53E-07 1.01E-06 5.57E-14
                               7.23E-06 2.01E-10
   7     6.00  492.000  263.6  7.04E-06 1.21E-05 5.03E-14 5.03E-14 3.00E-06 9.55E-07 6.03E-07 5.03E-14 1.13E-07 1.46E-06 5.03E-14
                               6.51E-06 2.07E-10
   8     7.00  432.000  257.0  6.34E-06 1.09E-05 4.53E-14 4.53E-14 2.70E-06 8.60E-07 5.43E-07 4.53E-14 7.90E-08 1.81E-06 4.53E-14
                               5.86E-06 2.10E-10
   9     8.00  378.000  250.3  5.70E-06 9.76E-06 4.07E-14 4.07E-14 2.43E-06 7.73E-07 4.88E-07 4.07E-14 5.04E-08 2.07E-06 4.07E-14
                               5.25E-06 2.10E-10
  10     9.00  329.000  243.6  5.09E-06 8.72E-06 3.64E-14 3.64E-14 2.17E-06 6.91E-07 4.37E-07 3.64E-14 4.40E-08 1.79E-06 3.64E-14
                               4.69E-06 2.10E-10
  11    10.00  286.000  237.0  4.54E-06 7.79E-06 3.25E-14 3.25E-14 1.94E-06 6.16E-07 3.90E-07 3.25E-14 3.82E-08 1.54E-06 3.25E-14
                               4.19E-06 2.07E-10
  12    11.00  247.000  230.1  4.03E-06 6.92E-06 2.89E-14 2.89E-14 1.72E-06 5.47E-07 3.47E-07 2.89E-14 3.31E-08 1.32E-06 2.89E-14
                               3.73E-06 2.02E-10
  13    12.00  213.000  223.6  3.57E-06 6.13E-06 2.57E-14 2.57E-14 1.53E-06 4.85E-07 3.08E-07 2.57E-14 2.85E-08 1.12E-06 2.57E-14
                               3.31E-06 1.94E-10
  14    13.00  182.000  217.0  3.05E-06 5.32E-06 2.26E-14 2.26E-14 1.33E-06 4.19E-07 2.68E-07 2.26E-14 1.81E-07 1.28E-06 2.26E-14
                               2.82E-06 9.96E-09
  15    14.00  156.000  210.3  2.62E-06 4.64E-06 2.00E-14 2.00E-14 1.17E-06 3.64E-07 2.35E-07 2.00E-14 2.98E-07 1.39E-06 2.00E-14
                               2.42E-06 1.75E-08
  16    15.00  132.000  203.7  2.22E-06 3.99E-06 1.75E-14 1.75E-14 1.01E-06 3.12E-07 2.03E-07 1.75E-14 3.81E-07 1.44E-06 1.75E-14
                               2.04E-06 2.28E-08
  17    16.00  111.000  197.0  1.87E-06 3.42E-06 1.52E-14 1.52E-14 8.68E-07 2.66E-07 1.75E-07 1.52E-14 4.36E-07 1.44E-06 1.52E-14
                               1.72E-06 2.64E-08
  18    17.00   93.700  194.8  1.46E-06 2.78E-06 1.30E-14 1.30E-14 7.21E-07 2.14E-07 1.45E-07 1.30E-14 1.32E-06 1.85E-06 1.30E-14
                               1.32E-06 1.14E-07
  19    18.00   78.900  198.8  1.09E-06 2.19E-06 1.07E-14 1.07E-14 5.78E-07 1.66E-07 1.16E-07 1.07E-14 1.86E-06 2.03E-06 1.07E-14
                               9.69E-07 1.69E-07
  20    19.00   66.600  202.7  8.05E-07 1.72E-06 8.85E-15 8.85E-15 4.65E-07 1.29E-07 9.32E-08 8.85E-15 2.19E-06 2.10E-06 8.85E-15
                               7.03E-07 2.02E-07
  21    20.00   56.500  206.7  5.91E-07 1.35E-06 7.36E-15 7.36E-15 3.75E-07 1.00E-07 7.51E-08 7.36E-15 2.36E-06 2.10E-06 7.36E-15
                               5.02E-07 2.20E-07
  22    21.00   48.000  210.7  4.21E-07 1.05E-06 6.14E-15 6.14E-15 3.00E-07 7.60E-08 5.99E-08 6.14E-15 2.82E-06 2.16E-06 6.14E-15
                               3.51E-07 2.54E-07
  23    22.00   40.900  214.6  2.93E-07 8.11E-07 5.13E-15 5.13E-15 2.41E-07 5.73E-08 4.78E-08 5.13E-15 3.08E-06 2.15E-06 5.13E-15
                               2.37E-07 2.72E-07
  24    23.00   35.000  217.0  1.98E-07 6.30E-07 4.35E-15 4.35E-15 1.95E-07 4.32E-08 3.85E-08 4.35E-15 3.22E-06 2.11E-06 4.35E-15
                               1.52E-07 2.80E-07
  25    24.00   30.000  219.2  1.25E-07 4.87E-07 3.69E-15 3.69E-15 1.59E-07 3.21E-08 3.10E-08 3.69E-15 3.24E-06 2.04E-06 3.69E-15
                               8.85E-08 2.81E-07
  26    25.00   25.700  221.4  8.53E-08 3.72E-07 3.13E-15 3.13E-15 1.28E-07 2.38E-08 2.49E-08 3.13E-15 3.04E-06 1.82E-06 3.13E-15
                               5.89E-08 2.41E-07
  27    30.00   12.200  232.3  5.52E-09 8.33E-08 1.41E-15 1.41E-15 4.28E-08 4.12E-09 7.97E-09 1.41E-15 1.61E-06 7.22E-07 1.41E-15
                               2.48E-09 7.81E-08
  28    35.00    6.000  243.1  1.32E-10 1.42E-08 6.65E-16 6.65E-16 1.38E-08 4.77E-10 2.43E-09 6.65E-16 3.48E-07 9.77E-08 6.65E-16
                               2.63E-11 7.19E-09
  29    40.00    3.050  254.0  5.98E-13 1.97E-09 3.23E-16 3.23E-16 4.50E-09 3.98E-11 7.50E-10 3.23E-16 1.38E-08 3.22E-09 3.23E-16
                               1.28E-14 6.89E-11
  30    45.00    1.590  264.8  1.49E-14 3.45E-10 1.62E-16 1.62E-16 1.68E-09 5.20E-12 2.62E-10 1.62E-16 2.72E-10 1.41E-10 1.62E-16
                               9.01E-17 6.37E-13
  31    50.00    0.854  270.2  5.08E-16 7.25E-11 8.51E-17 8.51E-17 7.48E-10 8.43E-13 1.06E-10 8.51E-17 3.97E-12 6.50E-12 8.51E-17
                               9.31E-19 5.35E-15
  32    70.00    0.058  218.9  3.63E-21 2.79E-13 7.14E-18 7.14E-18 5.13E-11 1.25E-15 4.18E-12 7.14E-18 5.16E-19 2.29E-16 7.14E-18
                               7.05E-26 5.85E-23
  33   100.00    0.000  190.7  1.27E-30 1.01E-18 4.08E-20 4.08E-20 7.31E-14 5.35E-22 8.70E-16 4.08E-20 3.30E-35 1.36E-31 4.08E-20
                               2.08E-38 0.00E+00


 CASE 3A: GIVEN H1,H2=SPACE,ANGLE



 TANGENT PATH WITH H1 =     70.000 AND ANGLE =    180.000 INTERSECTS THE EARTH

          H2 HAS BEEN RESET TO 0.0 AND LEN TO 0



 SLANT PATH PARAMETERS IN STANDARD FORM

          H1      =     70.000 KM
          H2      =      0.000 KM
          ANGLE   =    180.000 DEG
          PHI     =      0.000 DEG
          HMIN    =      0.000 KM
          LEN     =          0
1CALCULATION OF THE REFRACTED PATH THROUGH THE ATMOSPHERE


  I       ALTITUDE        THETA  DRANGE    RANGE    DBETA     BETA     PHI     DBEND  BENDING    PBAR    TBAR   RHOBAR
      FROM       TO
      (KM)      (KM)      (DEG)    (KM)     (KM)    (DEG)    (DEG)    (DEG)    (DEG)    (DEG)    (MB)    (K)  (GM CM-3)

          H2 TO H1

  1    0.000    1.000    0.000    1.000    1.000    0.000    0.000  180.000    0.000    0.000  958.316  296.74 1.12E-03
  2    1.000    2.000    0.000    1.000    2.000    0.000    0.000  180.000    0.000    0.000  854.330  290.74 1.02E-03
  3    2.000    3.000    0.000    1.000    3.000    0.000    0.000  180.000    0.000    0.000  759.895  285.73 9.26E-04
  4    3.000    4.000    0.000    1.000    4.000    0.000    0.000  180.000    0.000    0.000  673.837  280.39 8.36E-04
  5    4.000    5.000    0.000    1.000    5.000    0.000    0.000  180.000    0.000    0.000  595.849  273.69 7.58E-04
  6    5.000    6.000    0.000    1.000    6.000    0.000    0.000  180.000    0.000    0.000  525.360  266.99 6.85E-04
  7    6.000    7.000    0.000    1.000    7.000    0.000    0.000  180.000    0.000    0.000  461.873  260.34 6.17E-04
  8    7.000    8.000    0.000    1.000    8.000    0.000    0.000  180.000    0.000    0.000  404.881  253.70 5.55E-04
  9    8.000    9.000    0.000    1.000    9.000    0.000    0.000  180.000    0.000    0.000  353.389  247.00 4.98E-04
 10    9.000   10.000    0.000    1.000   10.000    0.000    0.000  180.000    0.000    0.000  307.402  240.35 4.45E-04
 11   10.000   11.000    0.000    1.000   11.000    0.000    0.000  180.000    0.000    0.000  266.404  233.60 3.97E-04
 12   11.000   12.000    0.000    1.000   12.000    0.000    0.000  180.000    0.000    0.000  229.919  226.90 3.52E-04
 13   12.000   13.000    0.000    1.000   13.000    0.000    0.000  180.000    0.000    0.000  197.423  220.35 3.12E-04
 14   13.000   14.000    0.000    1.000   14.000    0.000    0.000  180.000    0.000    0.000  168.932  213.70 2.75E-04
 15   14.000   15.000    0.000    1.000   15.000    0.000    0.000  180.000    0.000    0.000  143.936  207.06 2.42E-04
 16   15.000   16.000    0.000    1.000   16.000    0.000    0.000  180.000    0.000    0.000  121.442  200.41 2.11E-04
 17   16.000   17.000    0.000    1.000   17.000    0.000    0.000  180.000    0.000    0.000  102.334  195.93 1.82E-04
 18   17.000   18.000    0.000    1.000   18.000    0.000    0.000  180.000    0.000    0.000   86.325  196.73 1.52E-04
 19   18.000   19.000    0.000    1.000   19.000    0.000    0.000  180.000    0.000    0.000   72.770  200.68 1.26E-04
 20   19.000   20.000    0.000    1.000   20.000    0.000    0.000  180.000    0.000    0.000   61.566  204.63 1.05E-04
 21   20.000   21.000    0.000    1.000   21.000    0.000    0.000  180.000    0.000    0.000   52.264  208.63 8.71E-05
 22   21.000   22.000    0.000    1.000   22.000    0.000    0.000  180.000    0.000    0.000   44.461  212.59 7.27E-05
 23   22.000   23.000    0.000    1.000   23.000    0.000    0.000  180.000    0.000    0.000   37.955  215.76 6.11E-05
 24   23.000   24.000    0.000    1.000   24.000    0.000    0.000  180.000    0.000    0.000   32.504  218.07 5.18E-05
 25   24.000   25.000    0.000    1.000   25.000    0.000    0.000  180.000    0.000    0.000   27.854  220.27 4.40E-05
 26   25.000   30.000    0.000    5.000   30.000    0.000    0.000  180.000    0.000    0.000   19.003  226.09 2.79E-05
 27   30.000   35.000    0.000    5.000   35.000    0.000    0.000  180.000    0.000    0.000    9.123  236.99 1.28E-05
 28   35.000   40.000    0.000    5.000   40.000    0.000    0.000  180.000    0.000    0.000    4.536  247.86 6.13E-06
 29   40.000   45.000    0.000    5.000   45.000    0.000    0.000  180.000    0.000    0.000    2.325  258.74 3.02E-06
 30   45.000   50.000    0.000    5.000   50.000    0.000    0.000  180.000    0.000    0.000    1.223  267.20 1.54E-06
 31   50.000   70.000    0.000   20.000   70.000    0.000    0.000  180.000    0.000    0.000    0.445  253.37 4.07E-07




1CUMULATIVE ABSORBER AMOUNTS FOR THE PATH FROM H1 TO Z

  J     Z        TBAR     HNO3        O3 UV      CNTMSLF1   CNTMSLF2    CNTMFRN      O2
       (KM)       (K)   (ATM CM)    (ATM CM)    (MOL CM-2)  (MOL CM-2)  (MOL CM-2)(MOL CM-2)

  1   50.000   253.37   0.000E+00   1.003E-03   2.735E+08   3.238E+08   4.806E+13   1.316E+02
  2   45.000   267.20   0.000E+00   3.195E-03   9.996E+08   9.046E+08   1.729E+14   2.565E+02
  3   40.000   258.74   0.000E+00   1.025E-02   3.395E+09   3.384E+09   6.175E+14   5.009E+02
  4   35.000   247.86   0.000E+00   3.082E-02   1.134E+10   1.400E+10   2.263E+15   9.982E+02
  5   30.000   236.99   0.000E+00   7.787E-02   3.815E+10   5.796E+10   8.612E+15   2.045E+03
  6   25.000   226.09   0.000E+00   1.526E-01   1.267E+11   2.300E+11   3.373E+16   4.346E+03
  7   24.000   220.27   0.000E+00   1.690E-01   1.618E+11   3.036E+11   4.461E+16   5.077E+03
  8   23.000   218.07   0.000E+00   1.843E-01   2.051E+11   3.974E+11   5.886E+16   5.942E+03
  9   22.000   215.76   0.000E+00   1.978E-01   2.579E+11   5.153E+11   7.744E+16   6.969E+03
 10   21.000   212.59   0.000E+00   2.095E-01   3.262E+11   6.733E+11   1.025E+17   8.199E+03
 11   20.000   208.63   0.000E+00   2.202E-01   4.172E+11   8.943E+11   1.373E+17   9.685E+03
 12   19.000   204.63   0.000E+00   2.295E-01   5.462E+11   1.222E+12   1.869E+17   1.149E+04
 13   18.000   200.68   0.000E+00   2.364E-01   7.451E+11   1.748E+12   2.612E+17   1.369E+04
 14   17.000   196.73   0.000E+00   2.407E-01   1.070E+12   2.644E+12   3.761E+17   1.640E+04
 15   16.000   195.93   0.000E+00   2.434E-01   1.571E+12   4.037E+12   5.460E+17   1.968E+04
 16   15.000   200.41   0.000E+00   2.456E-01   2.525E+12   6.571E+12   8.170E+17   2.354E+04
 17   14.000   207.06   0.000E+00   2.478E-01   5.194E+12   1.316E+13   1.335E+18   2.806E+04
 18   13.000   213.70   0.000E+00   2.499E-01   1.376E+13   3.275E+13   2.389E+18   3.329E+04
 19   12.000   220.35   0.000E+00   2.519E-01   7.490E+13   1.612E+14   5.469E+18   3.933E+04
 20   11.000   226.90   0.000E+00   2.539E-01   6.209E+14   1.209E+15   1.600E+19   4.632E+04
 21   10.000   233.60   0.000E+00   2.557E-01   5.230E+15   9.198E+15   5.033E+19   5.437E+04
 22    9.000   240.35   0.000E+00   2.576E-01   3.578E+16   5.643E+16   1.507E+20   6.362E+04
 23    8.000   247.00   0.000E+00   2.594E-01   1.831E+17   2.569E+17   3.991E+20   7.425E+04
 24    7.000   253.70   0.000E+00   2.612E-01   7.467E+17   9.192E+17   9.431E+20   8.643E+04
 25    6.000   260.34   0.000E+00   2.632E-01   2.649E+18   2.803E+18   2.055E+21   1.004E+05
 26    5.000   266.99   0.000E+00   2.653E-01   8.694E+18   7.674E+18   4.253E+21   1.163E+05
 27    4.000   273.69   0.000E+00   2.674E-01   2.389E+19   1.709E+19   8.127E+21   1.345E+05
 28    3.000   280.39   0.000E+00   2.697E-01   7.495E+19   3.923E+19   1.583E+22   1.553E+05
 29    2.000   285.73   0.000E+00   2.721E-01   2.871E+20   9.976E+19   3.318E+22   1.792E+05
 30    1.000   290.74   0.000E+00   2.747E-01   8.413E+20   1.808E+20   6.435E+22   2.066E+05
 31    0.000   296.74   0.000E+00   2.773E-01   1.979E+21   1.575E+20   1.131E+23   2.379E+05



1 J     Z       N2 CONT    MOL SCAT       AER 1       AER 2       AER 3       AER 4       CIRRUS
       (KM)

  1   50.000   2.670E-06   6.298E-03   0.000E+00   0.000E+00   0.000E+00   0.000E+00   0.000E+00
  2   45.000   9.444E-06   1.227E-02   0.000E+00   0.000E+00   0.000E+00   0.000E+00   0.000E+00
  3   40.000   3.547E-05   2.395E-02   0.000E+00   0.000E+00   0.000E+00   0.000E+00   0.000E+00
  4   35.000   1.431E-04   4.766E-02   0.000E+00   0.000E+00   0.000E+00   0.000E+00   0.000E+00
  5   30.000   6.178E-04   9.735E-02   0.000E+00   0.000E+00   0.000E+00   0.000E+00   0.000E+00
  6   25.000   2.871E-03   2.054E-01   0.000E+00   0.000E+00   0.000E+00   0.000E+00   0.000E+00
  7   24.000   3.936E-03   2.394E-01   0.000E+00   0.000E+00   0.000E+00   0.000E+00   0.000E+00
  8   23.000   5.416E-03   2.795E-01   0.000E+00   0.000E+00   0.000E+00   0.000E+00   0.000E+00
  9   22.000   7.476E-03   3.268E-01   0.000E+00   0.000E+00   0.000E+00   0.000E+00   0.000E+00
 10   21.000   1.039E-02   3.830E-01   0.000E+00   0.000E+00   0.000E+00   0.000E+00   0.000E+00
 11   20.000   1.457E-02   4.504E-01   0.000E+00   0.000E+00   0.000E+00   0.000E+00   0.000E+00
 12   19.000   2.059E-02   5.313E-01   0.000E+00   0.000E+00   0.000E+00   0.000E+00   0.000E+00
 13   18.000   2.934E-02   6.288E-01   0.000E+00   0.000E+00   0.000E+00   0.000E+00   0.000E+00
 14   17.000   4.216E-02   7.468E-01   0.000E+00   0.000E+00   0.000E+00   0.000E+00   0.000E+00
 15   16.000   6.032E-02   8.873E-01   0.000E+00   0.000E+00   0.000E+00   0.000E+00   0.000E+00
 16   15.000   8.476E-02   1.050E+00   0.000E+00   0.000E+00   0.000E+00   0.000E+00   0.000E+00
 17   14.000   1.169E-01   1.237E+00   0.000E+00   0.000E+00   0.000E+00   0.000E+00   0.000E+00
 18   13.000   1.585E-01   1.450E+00   0.000E+00   0.000E+00   0.000E+00   0.000E+00   0.000E+00
 19   12.000   2.120E-01   1.691E+00   0.000E+00   0.000E+00   0.000E+00   0.000E+00   0.000E+00
 20   11.000   2.804E-01   1.964E+00   0.000E+00   0.000E+00   0.000E+00   0.000E+00   0.000E+00
 21   10.000   3.670E-01   2.271E+00   0.000E+00   0.000E+00   0.000E+00   0.000E+00   0.000E+00
 22    9.000   4.760E-01   2.615E+00   0.000E+00   0.000E+00   0.000E+00   0.000E+00   0.000E+00
 23    8.000   6.123E-01   3.001E+00   0.000E+00   0.000E+00   0.000E+00   0.000E+00   0.000E+00
 24    7.000   7.820E-01   3.430E+00   0.000E+00   0.000E+00   0.000E+00   0.000E+00   0.000E+00
 25    6.000   9.917E-01   3.908E+00   0.000E+00   0.000E+00   0.000E+00   0.000E+00   0.000E+00
 26    5.000   1.250E+00   4.438E+00   0.000E+00   0.000E+00   0.000E+00   0.000E+00   0.000E+00
 27    4.000   1.566E+00   5.024E+00   0.000E+00   0.000E+00   0.000E+00   0.000E+00   0.000E+00
 28    3.000   1.950E+00   5.671E+00   0.000E+00   0.000E+00   0.000E+00   0.000E+00   0.000E+00
 29    2.000   2.422E+00   6.388E+00   0.000E+00   0.000E+00   0.000E+00   0.000E+00   0.000E+00
 30    1.000   2.997E+00   7.179E+00   0.000E+00   0.000E+00   0.000E+00   0.000E+00   0.000E+00
 31    0.000   3.692E+00   8.049E+00   0.000E+00   0.000E+00   0.000E+00   0.000E+00   0.000E+00



1  J    Z       H2O       O3        CO2       CO        CH4       N2O       O2        NH3       NO        NO2       SO2
      (KM)    (                                                      ATM CM                                             )

   1   50.00  3.46E-03  1.00E-03  5.03E-01  0.00E+00  1.19E-04  0.00E+00  1.32E+02  0.00E+00  0.00E+00  0.00E+00  0.00E+00
   2   45.00  6.94E-03  3.20E-03  9.81E-01  0.00E+00  2.91E-04  0.00E+00  2.56E+02  0.00E+00  0.00E+00  0.00E+00  0.00E+00
   3   40.00  1.33E-02  1.02E-02  1.91E+00  0.00E+00  8.37E-04  0.00E+00  5.00E+02  0.00E+00  0.00E+00  0.00E+00  0.00E+00
   4   35.00  2.48E-02  3.08E-02  3.81E+00  0.00E+00  2.40E-03  0.00E+00  9.95E+02  0.00E+00  0.00E+00  0.00E+00  0.00E+00
   5   30.00  4.59E-02  7.79E-02  7.78E+00  0.00E+00  6.56E-03  0.00E+00  2.03E+03  0.00E+00  0.00E+00  0.00E+00  0.00E+00
   6   25.00  8.44E-02  1.53E-01  1.64E+01  0.00E+00  1.73E-02  0.00E+00  4.29E+03  0.00E+00  0.00E+00  0.00E+00  0.00E+00
   7   24.00  9.53E-02  1.69E-01  1.91E+01  0.00E+00  2.10E-02  0.00E+00  5.00E+03  0.00E+00  0.00E+00  0.00E+00  0.00E+00
   8   23.00  1.08E-01  1.84E-01  2.23E+01  0.00E+00  2.56E-02  0.00E+00  5.84E+03  0.00E+00  0.00E+00  0.00E+00  0.00E+00
   9   22.00  1.21E-01  1.98E-01  2.61E+01  0.00E+00  3.14E-02  0.00E+00  6.83E+03  0.00E+00  0.00E+00  0.00E+00  0.00E+00
  10   21.00  1.36E-01  2.10E-01  3.06E+01  0.00E+00  3.88E-02  0.00E+00  8.00E+03  0.00E+00  0.00E+00  0.00E+00  0.00E+00
  11   20.00  1.54E-01  2.20E-01  3.60E+01  0.00E+00  4.82E-02  0.00E+00  9.41E+03  0.00E+00  0.00E+00  0.00E+00  0.00E+00
  12   19.00  1.75E-01  2.30E-01  4.25E+01  0.00E+00  5.99E-02  0.00E+00  1.11E+04  0.00E+00  0.00E+00  0.00E+00  0.00E+00
  13   18.00  2.01E-01  2.36E-01  5.03E+01  0.00E+00  7.45E-02  0.00E+00  1.31E+04  0.00E+00  0.00E+00  0.00E+00  0.00E+00
  14   17.00  2.34E-01  2.41E-01  5.97E+01  0.00E+00  9.27E-02  0.00E+00  1.56E+04  0.00E+00  0.00E+00  0.00E+00  0.00E+00
  15   16.00  2.76E-01  2.43E-01  7.09E+01  0.00E+00  1.15E-01  0.00E+00  1.85E+04  0.00E+00  0.00E+00  0.00E+00  0.00E+00
  16   15.00  3.33E-01  2.46E-01  8.40E+01  0.00E+00  1.41E-01  0.00E+00  2.19E+04  0.00E+00  0.00E+00  0.00E+00  0.00E+00
  17   14.00  4.27E-01  2.48E-01  9.89E+01  0.00E+00  1.71E-01  0.00E+00  2.58E+04  0.00E+00  0.00E+00  0.00E+00  0.00E+00
  18   13.00  5.96E-01  2.50E-01  1.16E+02  0.00E+00  2.06E-01  0.00E+00  3.03E+04  0.00E+00  0.00E+00  0.00E+00  0.00E+00
  19   12.00  1.03E+00  2.52E-01  1.35E+02  0.00E+00  2.45E-01  0.00E+00  3.53E+04  0.00E+00  0.00E+00  0.00E+00  0.00E+00
  20   11.00  2.34E+00  2.54E-01  1.57E+02  0.00E+00  2.91E-01  0.00E+00  4.10E+04  0.00E+00  0.00E+00  0.00E+00  0.00E+00
  21   10.00  6.14E+00  2.56E-01  1.82E+02  0.00E+00  3.42E-01  0.00E+00  4.74E+04  0.00E+00  0.00E+00  0.00E+00  0.00E+00
  22    9.00  1.61E+01  2.58E-01  2.09E+02  0.00E+00  4.01E-01  0.00E+00  5.46E+04  0.00E+00  0.00E+00  0.00E+00  0.00E+00
  23    8.00  3.81E+01  2.59E-01  2.40E+02  0.00E+00  4.66E-01  0.00E+00  6.27E+04  0.00E+00  0.00E+00  0.00E+00  0.00E+00
  24    7.00  8.14E+01  2.61E-01  2.74E+02  0.00E+00  5.39E-01  0.00E+00  7.16E+04  0.00E+00  0.00E+00  0.00E+00  0.00E+00
  25    6.00  1.61E+02  2.63E-01  3.12E+02  0.00E+00  6.20E-01  0.00E+00  8.16E+04  0.00E+00  0.00E+00  0.00E+00  0.00E+00
  26    5.00  3.03E+02  2.65E-01  3.55E+02  0.00E+00  7.10E-01  0.00E+00  9.27E+04  0.00E+00  0.00E+00  0.00E+00  0.00E+00
  27    4.00  5.30E+02  2.67E-01  4.02E+02  0.00E+00  8.10E-01  0.00E+00  1.05E+05  0.00E+00  0.00E+00  0.00E+00  0.00E+00
  28    3.00  9.40E+02  2.70E-01  4.53E+02  0.00E+00  9.19E-01  0.00E+00  1.18E+05  0.00E+00  0.00E+00  0.00E+00  0.00E+00
  29    2.00  1.78E+03  2.72E-01  5.11E+02  0.00E+00  1.04E+00  0.00E+00  1.33E+05  0.00E+00  0.00E+00  0.00E+00  0.00E+00
  30    1.00  3.15E+03  2.75E-01  5.74E+02  0.00E+00  1.18E+00  0.00E+00  1.50E+05  0.00E+00  0.00E+00  0.00E+00  0.00E+00
  31    0.00  5.12E+03  2.77E-01  6.43E+02  0.00E+00  1.32E+00  0.00E+00  1.68E+05  0.00E+00  0.00E+00  0.00E+00  0.00E+00



1  J    Z      CFC-11    CFC-12    CFC-13    CFC-14    CFC-22    CFC-113   CFC-114   CFC-115   CLONO2     HNO4     CHCL2F 
                CCL4      N2O5  
      (KM)    (                                                   ATM CM                                                )

   1   50.00  8.57E-16  2.60E-10  6.29E-16  6.29E-16  5.20E-09  2.59E-12  6.32E-10  6.29E-16  5.01E-12  1.27E-11  6.29E-16
              1.14E-18  5.84E-15
   2   45.00  2.21E-14  1.13E-09  1.23E-15  1.23E-15  1.10E-08  1.46E-11  1.49E-09  1.23E-15  3.22E-10  2.32E-10  1.23E-15
              9.87E-17  6.67E-13
   3   40.00  8.12E-13  5.80E-09  2.39E-15  2.39E-15  2.53E-08  9.96E-11  3.81E-09  2.39E-15  1.76E-08  5.16E-09  2.39E-15
              1.29E-14  7.35E-11
   4   35.00  1.23E-10  3.67E-08  4.76E-15  4.76E-15  6.67E-08  9.79E-10  1.10E-08  4.76E-15  5.36E-07  1.44E-07  4.76E-15
              1.72E-11  7.74E-09
   5   30.00  7.34E-09  2.32E-07  9.73E-15  9.73E-15  1.95E-07  9.43E-09  3.43E-08  9.73E-15  4.66E-06  1.70E-06  9.73E-15
              2.72E-09  1.56E-07
   6   25.00  1.53E-07  1.20E-06  2.05E-14  2.05E-14  5.83E-07  6.55E-08  1.09E-07  2.05E-14  1.59E-05  7.63E-06  2.05E-14
              9.18E-08  8.79E-07
   7   24.00  2.57E-07  1.62E-06  2.39E-14  2.39E-14  7.26E-07  9.33E-08  1.36E-07  2.39E-14  1.91E-05  9.56E-06  2.39E-14
              1.65E-07  1.14E-06
   8   23.00  4.16E-07  2.18E-06  2.79E-14  2.79E-14  9.02E-07  1.31E-07  1.71E-07  2.79E-14  2.23E-05  1.16E-05  2.79E-14
              2.82E-07  1.42E-06
   9   22.00  6.58E-07  2.89E-06  3.27E-14  3.27E-14  1.12E-06  1.81E-07  2.14E-07  3.27E-14  2.54E-05  1.38E-05  3.27E-14
              4.73E-07  1.70E-06
  10   21.00  1.01E-06  3.82E-06  3.83E-14  3.83E-14  1.39E-06  2.47E-07  2.68E-07  3.83E-14  2.84E-05  1.59E-05  3.83E-14
              7.63E-07  1.96E-06
  11   20.00  1.51E-06  5.02E-06  4.50E-14  4.50E-14  1.73E-06  3.34E-07  3.35E-07  4.50E-14  3.10E-05  1.80E-05  4.50E-14
              1.19E-06  2.20E-06
  12   19.00  2.21E-06  6.55E-06  5.31E-14  5.31E-14  2.14E-06  4.48E-07  4.19E-07  5.31E-14  3.33E-05  2.01E-05  5.31E-14
              1.78E-06  2.41E-06
  13   18.00  3.14E-06  8.49E-06  6.28E-14  6.28E-14  2.66E-06  5.95E-07  5.23E-07  6.28E-14  3.53E-05  2.22E-05  6.28E-14
              2.61E-06  2.59E-06
  14   17.00  4.41E-06  1.10E-05  7.46E-14  7.46E-14  3.31E-06  7.84E-07  6.53E-07  7.46E-14  3.69E-05  2.41E-05  7.46E-14
              3.75E-06  2.74E-06
  15   16.00  6.06E-06  1.41E-05  8.87E-14  8.87E-14  4.10E-06  1.02E-06  8.12E-07  8.87E-14  3.77E-05  2.58E-05  8.87E-14
              5.25E-06  2.81E-06
  16   15.00  8.09E-06  1.77E-05  1.05E-13  1.05E-13  5.04E-06  1.31E-06  1.00E-06  1.05E-13  3.82E-05  2.72E-05  1.05E-13
              7.13E-06  2.83E-06
  17   14.00  1.05E-05  2.20E-05  1.24E-13  1.24E-13  6.12E-06  1.65E-06  1.22E-06  1.24E-13  3.85E-05  2.86E-05  1.24E-13
              9.35E-06  2.85E-06
  18   13.00  1.33E-05  2.70E-05  1.45E-13  1.45E-13  7.37E-06  2.04E-06  1.47E-06  1.45E-13  3.87E-05  3.00E-05  1.45E-13
              1.20E-05  2.86E-06
  19   12.00  1.66E-05  3.27E-05  1.69E-13  1.69E-13  8.80E-06  2.49E-06  1.76E-06  1.69E-13  3.88E-05  3.12E-05  1.69E-13
              1.50E-05  2.87E-06
  20   11.00  2.04E-05  3.93E-05  1.96E-13  1.96E-13  1.04E-05  3.01E-06  2.09E-06  1.96E-13  3.89E-05  3.24E-05  1.96E-13
              1.85E-05  2.87E-06
  21   10.00  2.47E-05  4.66E-05  2.27E-13  2.27E-13  1.22E-05  3.59E-06  2.45E-06  2.27E-13  3.89E-05  3.38E-05  2.27E-13
              2.25E-05  2.87E-06
  22    9.00  2.95E-05  5.48E-05  2.61E-13  2.61E-13  1.43E-05  4.24E-06  2.87E-06  2.61E-13  3.89E-05  3.55E-05  2.61E-13
              2.69E-05  2.87E-06
  23    8.00  3.49E-05  6.41E-05  3.00E-13  3.00E-13  1.66E-05  4.97E-06  3.33E-06  3.00E-13  3.90E-05  3.74E-05  3.00E-13
              3.19E-05  2.87E-06
  24    7.00  4.09E-05  7.44E-05  3.43E-13  3.43E-13  1.92E-05  5.79E-06  3.84E-06  3.43E-13  3.91E-05  3.93E-05  3.43E-13
              3.75E-05  2.87E-06
  25    6.00  4.76E-05  8.58E-05  3.91E-13  3.91E-13  2.20E-05  6.69E-06  4.42E-06  3.91E-13  3.92E-05  4.10E-05  3.91E-13
              4.36E-05  2.87E-06
  26    5.00  5.50E-05  9.86E-05  4.43E-13  4.43E-13  2.52E-05  7.70E-06  5.05E-06  4.43E-13  3.93E-05  4.22E-05  4.43E-13
              5.05E-05  2.87E-06
  27    4.00  6.32E-05  1.13E-04  5.02E-13  5.02E-13  2.87E-05  8.81E-06  5.75E-06  5.02E-13  3.95E-05  4.29E-05  5.02E-13
              5.81E-05  2.87E-06
  28    3.00  7.23E-05  1.28E-04  5.67E-13  5.67E-13  3.26E-05  1.00E-05  6.53E-06  5.67E-13  3.97E-05  4.34E-05  5.67E-13
              6.65E-05  2.87E-06
  29    2.00  8.23E-05  1.45E-04  6.38E-13  6.38E-13  3.68E-05  1.14E-05  7.39E-06  6.38E-13  4.00E-05  4.37E-05  6.38E-13
              7.58E-05  2.87E-06
  30    1.00  9.34E-05  1.64E-04  7.17E-13  7.17E-13  4.16E-05  1.29E-05  8.34E-06  7.17E-13  4.04E-05  4.39E-05  7.17E-13
              8.61E-05  2.87E-06
  31    0.00  1.06E-04  1.85E-04  8.04E-13  8.04E-13  4.68E-05  1.46E-05  9.38E-06  8.04E-13  4.08E-05  4.40E-05  8.04E-13
              9.74E-05  2.87E-06


0SUMMARY OF THE GEOMETRY CALCULATION

          H1      =     70.000 KM
          H2      =      0.000 KM
          ANGLE   =    180.000 DEG
          RANGE   =     70.000 KM
          BETA    =      0.000 DEG
          PHI     =      0.000 DEG
          HMIN    =      0.000 KM
          BENDING =      0.000 DEG
          LEN     =          0




1EQUIVALENT SEA LEVEL TOTAL ABSORBER AMOUNTS

                 HNO3      O3 UV       CNTMSLF1    CNTMSLF2   CNTMFRN
               (ATM CM)   (ATM CM)     (MOL CM-2)  (MOL CM-2)  (MOL CM-2)  (MOL CM-2)

             0.000E+00   2.773E-01   1.979E+21   1.575E+20   1.131E+23


              N2 CONT    MOL SCAT       AER 1       AER 2       AER 3       AER 4     CIRRUS      MEAN RH
                                                                                                  (PRCNT)

             3.692E+00   8.049E+00   0.000E+00   0.000E+00   0.000E+00   0.000E+00   0.000E+00        0.00


                 H2O        O3          CO2         CO          CH4         N2O          O2
               (                                        ATM CM                            )

             5.115E+03   2.773E-01   6.435E+02   0.000E+00   1.323E+00   0.000E+00   1.681E+05

                 NH3        NO          NO2         SO2
                 (               ATM CM               )

             0.000E+00   0.000E+00   0.000E+00   0.000E+00

             CFC-11      CFC-12      CFC-13      CFC-14      CFC-22      CFC-113     CFC-114
                 (                                      ATM CM                            )

             1.055E-04   1.852E-04   8.043E-13   8.043E-13   4.679E-05   1.456E-05   9.382E-06

             CFC-115     CLONO2       HNO4       CHCL2F       CCL4        N2O5  
                 (                                      ATM CM                            )

             8.043E-13   4.084E-05   4.403E-05   8.043E-13   9.740E-05   2.871E-06
  iv           -5
  iv            0
1                                             RADIANCE(WATTS/CM2-STER-XXX)
0  FREQ   WAVLEN    PATH THERMAL      SURFACE EMISSION    SURFACE REFLECTED     TOTAL RADIANCE   INTEGRAL    TOTAL
  (CM-1) (MICRN)    (CM-1)   (MICRN)    (CM-1)   (MICRN)    (CM-1)   (MICRN)    (CM-1)   (MICRN)    (CM-1)   TRANS

      2. 4999.998  9.70E-10  3.88E-13  2.20E-10  8.81E-14  0.00E+00  0.00E+00  1.19E-09  4.76E-13  1.19E-09  0.21844
      4. 2500.000  3.47E-09  5.56E-12  4.92E-10  7.87E-13  0.00E+00  0.00E+00  3.97E-09  6.34E-12  9.12E-09  0.13668
      6. 1666.666  8.13E-09  2.93E-11  3.55E-10  1.28E-12  0.00E+00  0.00E+00  8.48E-09  3.05E-11  2.61E-08  0.05503
      8. 1250.000  1.45E-08  9.31E-11  2.07E-10  1.32E-12  0.00E+00  0.00E+00  1.47E-08  9.44E-11  5.56E-08  0.01500
     10. 1000.000  2.22E-08  2.22E-10  6.68E-11  6.68E-13  0.00E+00  0.00E+00  2.22E-08  2.22E-10  1.00E-07  0.00393
     12.  833.333  3.05E-08  4.39E-10  8.25E-13  1.19E-14  0.00E+00  0.00E+00  3.05E-08  4.39E-10  1.61E-07  0.00003
     14.  714.286  4.00E-08  7.83E-10  1.10E-16  2.17E-18  0.00E+00  0.00E+00  4.00E-08  7.83E-10  2.41E-07  0.00000
     16.  625.000  5.08E-08  1.30E-09  6.33E-21  1.62E-22  0.00E+00  0.00E+00  5.08E-08  1.30E-09  3.43E-07  0.00000
     18.  555.555  6.13E-08  1.98E-09  2.23E-19  7.23E-21  0.00E+00  0.00E+00  6.13E-08  1.98E-09  4.65E-07  0.00000
     20.  500.000  7.64E-08  3.05E-09  2.23E-19  8.92E-21  0.00E+00  0.00E+00  7.64E-08  3.05E-09  6.18E-07  0.00000
     22.  454.545  9.52E-08  4.61E-09  5.54E-33  2.68E-34  0.00E+00  0.00E+00  9.52E-08  4.61E-09  8.08E-07  0.00000
     24.  416.667  1.09E-07  6.25E-09  3.33E-30  1.92E-31  0.00E+00  0.00E+00  1.09E-07  6.25E-09  1.03E-06  0.00000
     26.  384.615  1.25E-07  8.46E-09  3.33E-30  2.25E-31  0.00E+00  0.00E+00  1.25E-07  8.46E-09  1.28E-06  0.00000
     28.  357.143  1.50E-07  1.18E-08  1.13E-38  8.82E-40  0.00E+00  0.00E+00  1.50E-07  1.18E-08  1.58E-06  0.00000
     30.  333.333  1.70E-07  1.53E-08  6.41E-39  5.77E-40  0.00E+00  0.00E+00  1.70E-07  1.53E-08  1.92E-06  0.00000
     32.  312.500  1.85E-07  1.89E-08  0.00E+00  0.00E+00  0.00E+00  0.00E+00  1.85E-07  1.89E-08  2.28E-06  0.00000
     34.  294.118  2.05E-07  2.37E-08  0.00E+00  0.00E+00  0.00E+00  0.00E+00  2.05E-07  2.37E-08  2.70E-06  0.00000
     36.  277.778  2.20E-07  2.85E-08  0.00E+00  0.00E+00  0.00E+00  0.00E+00  2.20E-07  2.85E-08  3.14E-06  0.00000
     38.  263.158  2.35E-07  3.39E-08  0.00E+00  0.00E+00  0.00E+00  0.00E+00  2.35E-07  3.39E-08  3.60E-06  0.00000
     40.  250.000  2.63E-07  4.21E-08  0.00E+00  0.00E+00  0.00E+00  0.00E+00  2.63E-07  4.21E-08  4.13E-06  0.00000
     42.  238.095  3.03E-07  5.35E-08  0.00E+00  0.00E+00  0.00E+00  0.00E+00  3.03E-07  5.35E-08  4.74E-06  0.00000
     44.  227.273  3.39E-07  6.56E-08  0.00E+00  0.00E+00  0.00E+00  0.00E+00  3.39E-07  6.56E-08  5.42E-06  0.00000
     46.  217.391  3.60E-07  7.61E-08  0.00E+00  0.00E+00  0.00E+00  0.00E+00  3.60E-07  7.61E-08  6.14E-06  0.00000
     48.  208.333  3.85E-07  8.88E-08  0.00E+00  0.00E+00  0.00E+00  0.00E+00  3.85E-07  8.88E-08  6.91E-06  0.00000
     50.  200.000  4.26E-07  1.06E-07  0.00E+00  0.00E+00  0.00E+00  0.00E+00  4.26E-07  1.06E-07  7.76E-06  0.00000
     52.  192.308  4.48E-07  1.21E-07  0.00E+00  0.00E+00  0.00E+00  0.00E+00  4.48E-07  1.21E-07  8.65E-06  0.00000
     54.  185.185  4.56E-07  1.33E-07  0.00E+00  0.00E+00  0.00E+00  0.00E+00  4.56E-07  1.33E-07  9.56E-06  0.00000
     56.  178.571  4.70E-07  1.47E-07  0.00E+00  0.00E+00  0.00E+00  0.00E+00  4.70E-07  1.47E-07  1.05E-05  0.00000
     58.  172.414  5.11E-07  1.72E-07  0.00E+00  0.00E+00  0.00E+00  0.00E+00  5.11E-07  1.72E-07  1.15E-05  0.00000
     60.  166.667  5.58E-07  2.01E-07  0.00E+00  0.00E+00  0.00E+00  0.00E+00  5.58E-07  2.01E-07  1.26E-05  0.00000
     62.  161.290  5.94E-07  2.28E-07  0.00E+00  0.00E+00  0.00E+00  0.00E+00  5.94E-07  2.28E-07  1.38E-05  0.00000
     64.  156.250  6.30E-07  2.58E-07  0.00E+00  0.00E+00  0.00E+00  0.00E+00  6.30E-07  2.58E-07  1.51E-05  0.00000
     66.  151.515  6.84E-07  2.98E-07  0.00E+00  0.00E+00  0.00E+00  0.00E+00  6.84E-07  2.98E-07  1.65E-05  0.00000
     68.  147.059  7.10E-07  3.28E-07  0.00E+00  0.00E+00  0.00E+00  0.00E+00  7.10E-07  3.28E-07  1.79E-05  0.00000
     70.  142.857  7.42E-07  3.63E-07  0.00E+00  0.00E+00  0.00E+00  0.00E+00  7.42E-07  3.63E-07  1.94E-05  0.00000
     72.  138.889  7.54E-07  3.91E-07  0.00E+00  0.00E+00  0.00E+00  0.00E+00  7.54E-07  3.91E-07  2.09E-05  0.00000
     74.  135.135  7.79E-07  4.26E-07  0.00E+00  0.00E+00  0.00E+00  0.00E+00  7.79E-07  4.26E-07  2.24E-05  0.00000
     76.  131.579  8.34E-07  4.82E-07  0.00E+00  0.00E+00  0.00E+00  0.00E+00  8.34E-07  4.82E-07  2.41E-05  0.00000
     78.  128.205  8.73E-07  5.31E-07  0.00E+00  0.00E+00  0.00E+00  0.00E+00  8.73E-07  5.31E-07  2.58E-05  0.00000
     80.  125.000  9.02E-07  5.77E-07  0.00E+00  0.00E+00  0.00E+00  0.00E+00  9.02E-07  5.77E-07  2.76E-05  0.00000
     82.  121.951  9.59E-07  6.45E-07  0.00E+00  0.00E+00  0.00E+00  0.00E+00  9.59E-07  6.45E-07  2.96E-05  0.00000
     84.  119.048  1.03E-06  7.28E-07  0.00E+00  0.00E+00  0.00E+00  0.00E+00  1.03E-06  7.28E-07  3.16E-05  0.00000
     86.  116.279  1.06E-06  7.83E-07  0.00E+00  0.00E+00  0.00E+00  0.00E+00  1.06E-06  7.83E-07  3.37E-05  0.00000
     88.  113.636  1.05E-06  8.11E-07  0.00E+00  0.00E+00  0.00E+00  0.00E+00  1.05E-06  8.11E-07  3.58E-05  0.00000
     90.  111.111  1.10E-06  8.88E-07  0.00E+00  0.00E+00  0.00E+00  0.00E+00  1.10E-06  8.88E-07  3.80E-05  0.00000
     92.  108.696  1.13E-06  9.60E-07  0.00E+00  0.00E+00  0.00E+00  0.00E+00  1.13E-06  9.60E-07  4.03E-05  0.00000
     94.  106.383  1.19E-06  1.05E-06  0.00E+00  0.00E+00  0.00E+00  0.00E+00  1.19E-06  1.05E-06  4.27E-05  0.00000
     96.  104.167  1.25E-06  1.15E-06  0.00E+00  0.00E+00  0.00E+00  0.00E+00  1.25E-06  1.15E-06  4.52E-05  0.00000
     98.  102.041  1.27E-06  1.22E-06  0.00E+00  0.00E+00  0.00E+00  0.00E+00  1.27E-06  1.22E-06  4.77E-05  0.00000
    100.  100.000  1.27E-06  1.27E-06  0.00E+00  0.00E+00  0.00E+00  0.00E+00  1.27E-06  1.27E-06  5.03E-05  0.00000
  iv          105
1                                             RADIANCE(WATTS/CM2-STER-XXX)
0  FREQ   WAVLEN    PATH THERMAL      SURFACE EMISSION    SURFACE REFLECTED     TOTAL RADIANCE   INTEGRAL    TOTAL
  (CM-1) (MICRN)    (CM-1)   (MICRN)    (CM-1)   (MICRN)    (CM-1)   (MICRN)    (CM-1)   (MICRN)    (CM-1)   TRANS

    102.   98.039  1.35E-06  1.40E-06  0.00E+00  0.00E+00  0.00E+00  0.00E+00  1.35E-06  1.40E-06  5.30E-05  0.00000
    104.   96.154  1.39E-06  1.51E-06  0.00E+00  0.00E+00  0.00E+00  0.00E+00  1.39E-06  1.51E-06  5.58E-05  0.00000
    106.   94.340  1.43E-06  1.61E-06  0.00E+00  0.00E+00  0.00E+00  0.00E+00  1.43E-06  1.61E-06  5.86E-05  0.00000
    108.   92.593  1.54E-06  1.80E-06  0.00E+00  0.00E+00  0.00E+00  0.00E+00  1.54E-06  1.80E-06  6.17E-05  0.00000
    110.   90.909  1.58E-06  1.92E-06  0.00E+00  0.00E+00  0.00E+00  0.00E+00  1.58E-06  1.92E-06  6.49E-05  0.00000
    112.   89.286  1.63E-06  2.05E-06  0.00E+00  0.00E+00  0.00E+00  0.00E+00  1.63E-06  2.05E-06  6.81E-05  0.00000
    114.   87.719  1.76E-06  2.29E-06  0.00E+00  0.00E+00  0.00E+00  0.00E+00  1.76E-06  2.29E-06  7.17E-05  0.00000
    116.   86.207  1.79E-06  2.41E-06  0.00E+00  0.00E+00  0.00E+00  0.00E+00  1.79E-06  2.41E-06  7.52E-05  0.00000
    118.   84.746  1.78E-06  2.48E-06  0.00E+00  0.00E+00  0.00E+00  0.00E+00  1.78E-06  2.48E-06  7.88E-05  0.00000
    120.   83.333  1.76E-06  2.53E-06  0.00E+00  0.00E+00  0.00E+00  0.00E+00  1.76E-06  2.53E-06  8.23E-05  0.00000
    122.   81.967  1.78E-06  2.65E-06  0.00E+00  0.00E+00  0.00E+00  0.00E+00  1.78E-06  2.65E-06  8.59E-05  0.00000
    124.   80.645  1.89E-06  2.91E-06  0.00E+00  0.00E+00  0.00E+00  0.00E+00  1.89E-06  2.91E-06  8.97E-05  0.00000
    126.   79.365  1.89E-06  3.01E-06  0.00E+00  0.00E+00  0.00E+00  0.00E+00  1.89E-06  3.01E-06  9.35E-05  0.00000
    128.   78.125  1.97E-06  3.22E-06  0.00E+00  0.00E+00  0.00E+00  0.00E+00  1.97E-06  3.22E-06  9.74E-05  0.00000
    130.   76.923  2.06E-06  3.48E-06  0.00E+00  0.00E+00  0.00E+00  0.00E+00  2.06E-06  3.48E-06  1.02E-04  0.00000
    132.   75.758  2.02E-06  3.51E-06  0.00E+00  0.00E+00  0.00E+00  0.00E+00  2.02E-06  3.51E-06  1.06E-04  0.00000
    134.   74.627  2.12E-06  3.80E-06  0.00E+00  0.00E+00  0.00E+00  0.00E+00  2.12E-06  3.80E-06  1.10E-04  0.00000
    136.   73.529  2.26E-06  4.18E-06  0.00E+00  0.00E+00  0.00E+00  0.00E+00  2.26E-06  4.18E-06  1.14E-04  0.00000
    138.   72.464  2.22E-06  4.22E-06  0.00E+00  0.00E+00  0.00E+00  0.00E+00  2.22E-06  4.22E-06  1.19E-04  0.00000
    140.   71.429  2.20E-06  4.30E-06  0.00E+00  0.00E+00  0.00E+00  0.00E+00  2.20E-06  4.30E-06  1.23E-04  0.00000
    142.   70.423  2.37E-06  4.79E-06  0.00E+00  0.00E+00  0.00E+00  0.00E+00  2.37E-06  4.79E-06  1.28E-04  0.00000
    144.   69.444  2.53E-06  5.24E-06  0.00E+00  0.00E+00  0.00E+00  0.00E+00  2.53E-06  5.24E-06  1.33E-04  0.00000
    146.   68.493  2.55E-06  5.43E-06  0.00E+00  0.00E+00  0.00E+00  0.00E+00  2.55E-06  5.43E-06  1.38E-04  0.00000
    148.   67.568  2.45E-06  5.37E-06  0.00E+00  0.00E+00  0.00E+00  0.00E+00  2.45E-06  5.37E-06  1.43E-04  0.00000
    150.   66.667  2.35E-06  5.29E-06  0.00E+00  0.00E+00  0.00E+00  0.00E+00  2.35E-06  5.29E-06  1.48E-04  0.00000
    152.   65.789  2.43E-06  5.61E-06  0.00E+00  0.00E+00  0.00E+00  0.00E+00  2.43E-06  5.61E-06  1.52E-04  0.00000
    154.   64.935  2.58E-06  6.13E-06  0.00E+00  0.00E+00  0.00E+00  0.00E+00  2.58E-06  6.13E-06  1.58E-04  0.00000
    156.   64.103  2.68E-06  6.51E-06  0.00E+00  0.00E+00  0.00E+00  0.00E+00  2.68E-06  6.51E-06  1.63E-04  0.00000
    158.   63.291  2.71E-06  6.76E-06  0.00E+00  0.00E+00  0.00E+00  0.00E+00  2.71E-06  6.76E-06  1.68E-04  0.00000
    160.   62.500  2.87E-06  7.35E-06  0.00E+00  0.00E+00  0.00E+00  0.00E+00  2.87E-06  7.35E-06  1.74E-04  0.00000
    162.   61.728  3.00E-06  7.86E-06  0.00E+00  0.00E+00  0.00E+00  0.00E+00  3.00E-06  7.86E-06  1.80E-04  0.00000
    164.   60.976  3.06E-06  8.24E-06  0.00E+00  0.00E+00  0.00E+00  0.00E+00  3.06E-06  8.24E-06  1.86E-04  0.00000
    166.   60.241  3.00E-06  8.27E-06  0.00E+00  0.00E+00  0.00E+00  0.00E+00  3.00E-06  8.27E-06  1.92E-04  0.00000
    168.   59.524  2.96E-06  8.34E-06  0.00E+00  0.00E+00  0.00E+00  0.00E+00  2.96E-06  8.34E-06  1.98E-04  0.00000
    170.   58.824  2.90E-06  8.39E-06  0.00E+00  0.00E+00  0.00E+00  0.00E+00  2.90E-06  8.39E-06  2.04E-04  0.00000
    172.   58.140  2.98E-06  8.82E-06  0.00E+00  0.00E+00  0.00E+00  0.00E+00  2.98E-06  8.82E-06  2.10E-04  0.00000
    174.   57.471  3.07E-06  9.28E-06  0.00E+00  0.00E+00  0.00E+00  0.00E+00  3.07E-06  9.28E-06  2.16E-04  0.00000
    176.   56.818  3.09E-06  9.58E-06  0.00E+00  0.00E+00  0.00E+00  0.00E+00  3.09E-06  9.58E-06  2.22E-04  0.00000
    178.   56.180  3.14E-06  9.94E-06  0.00E+00  0.00E+00  0.00E+00  0.00E+00  3.14E-06  9.94E-06  2.29E-04  0.00000
    180.   55.556  3.30E-06  1.07E-05  0.00E+00  0.00E+00  0.00E+00  0.00E+00  3.30E-06  1.07E-05  2.35E-04  0.00000
    182.   54.945  3.40E-06  1.13E-05  0.00E+00  0.00E+00  0.00E+00  0.00E+00  3.40E-06  1.13E-05  2.42E-04  0.00000
    184.   54.348  3.57E-06  1.21E-05  0.00E+00  0.00E+00  0.00E+00  0.00E+00  3.57E-06  1.21E-05  2.49E-04  0.00000
    186.   53.763  3.61E-06  1.25E-05  0.00E+00  0.00E+00  0.00E+00  0.00E+00  3.61E-06  1.25E-05  2.56E-04  0.00000
    188.   53.191  3.50E-06  1.24E-05  0.00E+00  0.00E+00  0.00E+00  0.00E+00  3.50E-06  1.24E-05  2.63E-04  0.00000
    190.   52.632  3.69E-06  1.33E-05  0.00E+00  0.00E+00  0.00E+00  0.00E+00  3.69E-06  1.33E-05  2.71E-04  0.00000
    192.   52.083  3.77E-06  1.39E-05  0.00E+00  0.00E+00  0.00E+00  0.00E+00  3.77E-06  1.39E-05  2.78E-04  0.00000
    194.   51.546  3.70E-06  1.39E-05  0.00E+00  0.00E+00  0.00E+00  0.00E+00  3.70E-06  1.39E-05  2.86E-04  0.00000
    196.   51.020  3.78E-06  1.45E-05  0.00E+00  0.00E+00  0.00E+00  0.00E+00  3.78E-06  1.45E-05  2.93E-04  0.00000
    198.   50.505  3.86E-06  1.51E-05  0.00E+00  0.00E+00  0.00E+00  0.00E+00  3.86E-06  1.51E-05  3.01E-04  0.00000
    200.   50.000  3.79E-06  1.52E-05  0.00E+00  0.00E+00  0.00E+00  0.00E+00  3.79E-06  1.52E-05  3.09E-04  0.00000
  iv          205
1                                             RADIANCE(WATTS/CM2-STER-XXX)
0  FREQ   WAVLEN    PATH THERMAL      SURFACE EMISSION    SURFACE REFLECTED     TOTAL RADIANCE   INTEGRAL    TOTAL
  (CM-1) (MICRN)    (CM-1)   (MICRN)    (CM-1)   (MICRN)    (CM-1)   (MICRN)    (CM-1)   (MICRN)    (CM-1)   TRANS

    202.   49.505  3.57E-06  1.46E-05  0.00E+00  0.00E+00  0.00E+00  0.00E+00  3.57E-06  1.46E-05  3.16E-04  0.00000
    204.   49.020  3.73E-06  1.55E-05  0.00E+00  0.00E+00  0.00E+00  0.00E+00  3.73E-06  1.55E-05  3.23E-04  0.00000
    206.   48.544  3.92E-06  1.66E-05  0.00E+00  0.00E+00  0.00E+00  0.00E+00  3.92E-06  1.66E-05  3.31E-04  0.00000
    208.   48.077  3.81E-06  1.65E-05  0.00E+00  0.00E+00  0.00E+00  0.00E+00  3.81E-06  1.65E-05  3.39E-04  0.00000
    210.   47.619  4.01E-06  1.77E-05  0.00E+00  0.00E+00  0.00E+00  0.00E+00  4.01E-06  1.77E-05  3.47E-04  0.00000
    212.   47.170  4.15E-06  1.87E-05  0.00E+00  0.00E+00  0.00E+00  0.00E+00  4.15E-06  1.87E-05  3.55E-04  0.00000
    214.   46.729  4.11E-06  1.88E-05  0.00E+00  0.00E+00  0.00E+00  0.00E+00  4.11E-06  1.88E-05  3.63E-04  0.00000
    216.   46.296  4.35E-06  2.03E-05  0.00E+00  0.00E+00  0.00E+00  0.00E+00  4.35E-06  2.03E-05  3.72E-04  0.00000
    218.   45.872  4.55E-06  2.16E-05  0.00E+00  0.00E+00  0.00E+00  0.00E+00  4.55E-06  2.16E-05  3.81E-04  0.00000
    220.   45.455  4.39E-06  2.13E-05  0.00E+00  0.00E+00  0.00E+00  0.00E+00  4.39E-06  2.13E-05  3.90E-04  0.00000
    222.   45.045  4.18E-06  2.06E-05  0.00E+00  0.00E+00  0.00E+00  0.00E+00  4.18E-06  2.06E-05  3.98E-04  0.00000
    224.   44.643  4.25E-06  2.13E-05  0.00E+00  0.00E+00  0.00E+00  0.00E+00  4.25E-06  2.13E-05  4.07E-04  0.00000
    226.   44.248  4.14E-06  2.12E-05  0.00E+00  0.00E+00  0.00E+00  0.00E+00  4.14E-06  2.12E-05  4.15E-04  0.00000
    228.   43.860  4.20E-06  2.18E-05  0.00E+00  0.00E+00  0.00E+00  0.00E+00  4.20E-06  2.18E-05  4.23E-04  0.00000
    230.   43.478  4.56E-06  2.41E-05  0.00E+00  0.00E+00  0.00E+00  0.00E+00  4.56E-06  2.41E-05  4.32E-04  0.00000
    232.   43.103  4.74E-06  2.55E-05  0.00E+00  0.00E+00  0.00E+00  0.00E+00  4.74E-06  2.55E-05  4.42E-04  0.00000
    234.   42.735  4.94E-06  2.70E-05  0.00E+00  0.00E+00  0.00E+00  0.00E+00  4.94E-06  2.70E-05  4.52E-04  0.00000
    236.   42.373  5.11E-06  2.84E-05  0.00E+00  0.00E+00  0.00E+00  0.00E+00  5.11E-06  2.84E-05  4.62E-04  0.00000
    238.   42.017  5.18E-06  2.94E-05  0.00E+00  0.00E+00  0.00E+00  0.00E+00  5.18E-06  2.94E-05  4.72E-04  0.00000
    240.   41.667  5.23E-06  3.01E-05  0.00E+00  0.00E+00  0.00E+00  0.00E+00  5.23E-06  3.01E-05  4.83E-04  0.00000
    242.   41.322  5.18E-06  3.03E-05  0.00E+00  0.00E+00  0.00E+00  0.00E+00  5.18E-06  3.03E-05  4.93E-04  0.00000
    244.   40.984  4.84E-06  2.88E-05  0.00E+00  0.00E+00  0.00E+00  0.00E+00  4.84E-06  2.88E-05  5.03E-04  0.00000
    246.   40.650  4.56E-06  2.76E-05  0.00E+00  0.00E+00  0.00E+00  0.00E+00  4.56E-06  2.76E-05  5.12E-04  0.00000
    248.   40.323  4.68E-06  2.88E-05  0.00E+00  0.00E+00  0.00E+00  0.00E+00  4.68E-06  2.88E-05  5.21E-04  0.00000
    250.   40.000  5.02E-06  3.14E-05  0.00E+00  0.00E+00  0.00E+00  0.00E+00  5.02E-06  3.14E-05  5.31E-04  0.00000
    252.   39.683  4.93E-06  3.13E-05  0.00E+00  0.00E+00  0.00E+00  0.00E+00  4.93E-06  3.13E-05  5.41E-04  0.00000
    254.   39.370  4.77E-06  3.07E-05  0.00E+00  0.00E+00  0.00E+00  0.00E+00  4.77E-06  3.07E-05  5.51E-04  0.00000
    256.   39.063  5.17E-06  3.39E-05  0.00E+00  0.00E+00  0.00E+00  0.00E+00  5.17E-06  3.39E-05  5.61E-04  0.00000
    258.   38.760  5.55E-06  3.70E-05  0.00E+00  0.00E+00  0.00E+00  0.00E+00  5.55E-06  3.70E-05  5.72E-04  0.00000
    260.   38.462  5.74E-06  3.88E-05  0.00E+00  0.00E+00  0.00E+00  0.00E+00  5.74E-06  3.88E-05  5.84E-04  0.00000
    262.   38.168  5.77E-06  3.96E-05  0.00E+00  0.00E+00  0.00E+00  0.00E+00  5.77E-06  3.96E-05  5.95E-04  0.00000
    264.   37.879  5.68E-06  3.96E-05  0.00E+00  0.00E+00  0.00E+00  0.00E+00  5.68E-06  3.96E-05  6.06E-04  0.00000
    266.   37.594  5.49E-06  3.88E-05  0.00E+00  0.00E+00  0.00E+00  0.00E+00  5.49E-06  3.88E-05  6.17E-04  0.00000
    268.   37.313  5.73E-06  4.12E-05  0.00E+00  0.00E+00  0.00E+00  0.00E+00  5.73E-06  4.12E-05  6.29E-04  0.00000
    270.   37.037  6.00E-06  4.37E-05  0.00E+00  0.00E+00  0.00E+00  0.00E+00  6.00E-06  4.37E-05  6.41E-04  0.00000
    272.   36.765  6.00E-06  4.44E-05  0.00E+00  0.00E+00  0.00E+00  0.00E+00  6.00E-06  4.44E-05  6.53E-04  0.00000
    274.   36.496  5.86E-06  4.40E-05  0.00E+00  0.00E+00  0.00E+00  0.00E+00  5.86E-06  4.40E-05  6.65E-04  0.00000
    276.   36.232  5.47E-06  4.17E-05  0.00E+00  0.00E+00  0.00E+00  0.00E+00  5.47E-06  4.17E-05  6.76E-04  0.00000
    278.   35.971  5.16E-06  3.99E-05  0.00E+00  0.00E+00  0.00E+00  0.00E+00  5.16E-06  3.99E-05  6.86E-04  0.00000
    280.   35.714  5.22E-06  4.09E-05  0.00E+00  0.00E+00  0.00E+00  0.00E+00  5.22E-06  4.09E-05  6.96E-04  0.00000
    282.   35.461  5.38E-06  4.28E-05  0.00E+00  0.00E+00  0.00E+00  0.00E+00  5.38E-06  4.28E-05  7.07E-04  0.00000
    284.   35.211  5.86E-06  4.73E-05  0.00E+00  0.00E+00  0.00E+00  0.00E+00  5.86E-06  4.73E-05  7.19E-04  0.00000
    286.   34.965  6.18E-06  5.05E-05  0.00E+00  0.00E+00  0.00E+00  0.00E+00  6.18E-06  5.05E-05  7.31E-04  0.00000
    288.   34.722  5.92E-06  4.91E-05  0.00E+00  0.00E+00  0.00E+00  0.00E+00  5.92E-06  4.91E-05  7.43E-04  0.00000
    290.   34.483  5.81E-06  4.89E-05  0.00E+00  0.00E+00  0.00E+00  0.00E+00  5.81E-06  4.89E-05  7.55E-04  0.00000
    292.   34.247  6.33E-06  5.39E-05  0.00E+00  0.00E+00  0.00E+00  0.00E+00  6.33E-06  5.39E-05  7.67E-04  0.00000
    294.   34.014  6.60E-06  5.71E-05  0.00E+00  0.00E+00  0.00E+00  0.00E+00  6.60E-06  5.71E-05  7.81E-04  0.00000
    296.   33.784  6.57E-06  5.76E-05  0.00E+00  0.00E+00  0.00E+00  0.00E+00  6.57E-06  5.76E-05  7.94E-04  0.00000
    298.   33.557  6.44E-06  5.72E-05  0.00E+00  0.00E+00  0.00E+00  0.00E+00  6.44E-06  5.72E-05  8.07E-04  0.00000
    300.   33.333  6.24E-06  5.61E-05  0.00E+00  0.00E+00  0.00E+00  0.00E+00  6.24E-06  5.61E-05  8.19E-04  0.00000
  iv          305
1                                             RADIANCE(WATTS/CM2-STER-XXX)
0  FREQ   WAVLEN    PATH THERMAL      SURFACE EMISSION    SURFACE REFLECTED     TOTAL RADIANCE   INTEGRAL    TOTAL
  (CM-1) (MICRN)    (CM-1)   (MICRN)    (CM-1)   (MICRN)    (CM-1)   (MICRN)    (CM-1)   (MICRN)    (CM-1)   TRANS

    302.   33.113  5.75E-06  5.25E-05  0.00E+00  0.00E+00  0.00E+00  0.00E+00  5.75E-06  5.25E-05  8.31E-04  0.00000
    304.   32.895  5.94E-06  5.49E-05  0.00E+00  0.00E+00  0.00E+00  0.00E+00  5.94E-06  5.49E-05  8.42E-04  0.00000
    306.   32.680  6.61E-06  6.19E-05  0.00E+00  0.00E+00  0.00E+00  0.00E+00  6.61E-06  6.19E-05  8.56E-04  0.00000
    308.   32.468  6.85E-06  6.50E-05  0.00E+00  0.00E+00  0.00E+00  0.00E+00  6.85E-06  6.50E-05  8.69E-04  0.00000
    310.   32.258  6.96E-06  6.69E-05  0.00E+00  0.00E+00  0.00E+00  0.00E+00  6.96E-06  6.69E-05  8.83E-04  0.00000
    312.   32.051  7.03E-06  6.84E-05  0.00E+00  0.00E+00  0.00E+00  0.00E+00  7.03E-06  6.84E-05  8.97E-04  0.00000
    314.   31.847  6.71E-06  6.62E-05  0.00E+00  0.00E+00  0.00E+00  0.00E+00  6.71E-06  6.62E-05  9.11E-04  0.00000
    316.   31.646  6.74E-06  6.73E-05  0.00E+00  0.00E+00  0.00E+00  0.00E+00  6.74E-06  6.73E-05  9.24E-04  0.00000
    318.   31.447  7.19E-06  7.28E-05  0.00E+00  0.00E+00  0.00E+00  0.00E+00  7.19E-06  7.28E-05  9.39E-04  0.00000
    320.   31.250  7.17E-06  7.34E-05  0.00E+00  0.00E+00  0.00E+00  0.00E+00  7.17E-06  7.34E-05  9.53E-04  0.00000
    322.   31.056  6.71E-06  6.96E-05  0.00E+00  0.00E+00  0.00E+00  0.00E+00  6.71E-06  6.96E-05  9.66E-04  0.00000
    324.   30.864  6.33E-06  6.65E-05  0.00E+00  0.00E+00  0.00E+00  0.00E+00  6.33E-06  6.65E-05  9.79E-04  0.00000
    326.   30.675  6.53E-06  6.94E-05  0.00E+00  0.00E+00  0.00E+00  0.00E+00  6.53E-06  6.94E-05  9.92E-04  0.00000
    328.   30.488  6.46E-06  6.95E-05  0.00E+00  0.00E+00  0.00E+00  0.00E+00  6.46E-06  6.95E-05  1.00E-03  0.00000
    330.   30.303  7.07E-06  7.70E-05  0.00E+00  0.00E+00  0.00E+00  0.00E+00  7.07E-06  7.70E-05  1.02E-03  0.00000
    332.   30.120  7.41E-06  8.16E-05  0.00E+00  0.00E+00  0.00E+00  0.00E+00  7.41E-06  8.16E-05  1.03E-03  0.00000
    334.   29.940  6.92E-06  7.71E-05  0.00E+00  0.00E+00  0.00E+00  0.00E+00  6.92E-06  7.71E-05  1.05E-03  0.00000
    336.   29.762  6.84E-06  7.72E-05  0.00E+00  0.00E+00  0.00E+00  0.00E+00  6.84E-06  7.72E-05  1.06E-03  0.00000
    338.   29.586  7.48E-06  8.54E-05  0.00E+00  0.00E+00  0.00E+00  0.00E+00  7.48E-06  8.54E-05  1.08E-03  0.00000
    340.   29.412  7.29E-06  8.43E-05  0.00E+00  0.00E+00  0.00E+00  0.00E+00  7.29E-06  8.43E-05  1.09E-03  0.00000
    342.   29.240  7.22E-06  8.44E-05  0.00E+00  0.00E+00  0.00E+00  0.00E+00  7.22E-06  8.44E-05  1.11E-03  0.00000
    344.   29.070  7.52E-06  8.89E-05  0.00E+00  0.00E+00  0.00E+00  0.00E+00  7.52E-06  8.89E-05  1.12E-03  0.00000
    346.   28.902  7.66E-06  9.17E-05  0.00E+00  0.00E+00  0.00E+00  0.00E+00  7.66E-06  9.17E-05  1.14E-03  0.00000
    348.   28.736  7.43E-06  9.00E-05  0.00E+00  0.00E+00  0.00E+00  0.00E+00  7.43E-06  9.00E-05  1.15E-03  0.00000
    350.   28.571  6.90E-06  8.45E-05  0.00E+00  0.00E+00  0.00E+00  0.00E+00  6.90E-06  8.45E-05  1.16E-03  0.00000
    352.   28.409  6.81E-06  8.44E-05  0.00E+00  0.00E+00  0.00E+00  0.00E+00  6.81E-06  8.44E-05  1.18E-03  0.00000
    354.   28.249  6.91E-06  8.66E-05  0.00E+00  0.00E+00  0.00E+00  0.00E+00  6.91E-06  8.66E-05  1.19E-03  0.00000
    356.   28.090  6.99E-06  8.86E-05  0.00E+00  0.00E+00  0.00E+00  0.00E+00  6.99E-06  8.86E-05  1.21E-03  0.00000
    358.   27.933  7.27E-06  9.32E-05  0.00E+00  0.00E+00  0.00E+00  0.00E+00  7.27E-06  9.32E-05  1.22E-03  0.00000
    360.   27.778  8.04E-06  1.04E-04  0.00E+00  0.00E+00  0.00E+00  0.00E+00  8.04E-06  1.04E-04  1.24E-03  0.00000
    362.   27.624  8.37E-06  1.10E-04  0.00E+00  0.00E+00  0.00E+00  0.00E+00  8.37E-06  1.10E-04  1.25E-03  0.00000
    364.   27.473  8.51E-06  1.13E-04  0.00E+00  0.00E+00  0.00E+00  0.00E+00  8.51E-06  1.13E-04  1.27E-03  0.00000
    366.   27.322  8.61E-06  1.15E-04  0.00E+00  0.00E+00  0.00E+00  0.00E+00  8.61E-06  1.15E-04  1.29E-03  0.00000
    368.   27.174  8.17E-06  1.11E-04  0.00E+00  0.00E+00  0.00E+00  0.00E+00  8.17E-06  1.11E-04  1.30E-03  0.00000
    370.   27.027  7.75E-06  1.06E-04  0.00E+00  0.00E+00  0.00E+00  0.00E+00  7.75E-06  1.06E-04  1.32E-03  0.00000
    372.   26.882  8.07E-06  1.12E-04  0.00E+00  0.00E+00  0.00E+00  0.00E+00  8.07E-06  1.12E-04  1.34E-03  0.00000
    374.   26.738  7.52E-06  1.05E-04  0.00E+00  0.00E+00  0.00E+00  0.00E+00  7.52E-06  1.05E-04  1.35E-03  0.00000
    376.   26.596  7.50E-06  1.06E-04  0.00E+00  0.00E+00  0.00E+00  0.00E+00  7.50E-06  1.06E-04  1.37E-03  0.00000
    378.   26.455  8.34E-06  1.19E-04  0.00E+00  0.00E+00  0.00E+00  0.00E+00  8.34E-06  1.19E-04  1.38E-03  0.00000
    380.   26.316  8.77E-06  1.27E-04  5.84E-43  8.44E-42  0.00E+00  0.00E+00  8.77E-06  1.27E-04  1.40E-03  0.00000
    382.   26.178  8.69E-06  1.27E-04  5.90E-43  8.61E-42  0.00E+00  0.00E+00  8.69E-06  1.27E-04  1.42E-03  0.00000
    384.   26.042  7.90E-06  1.16E-04  4.20E-45  6.17E-44  0.00E+00  0.00E+00  7.90E-06  1.16E-04  1.43E-03  0.00000
    386.   25.907  7.93E-06  1.18E-04  2.57E-37  3.83E-36  0.00E+00  0.00E+00  7.93E-06  1.18E-04  1.45E-03  0.00000
    388.   25.773  8.93E-06  1.34E-04  1.52E-34  2.28E-33  0.00E+00  0.00E+00  8.93E-06  1.34E-04  1.47E-03  0.00000
    390.   25.641  9.24E-06  1.41E-04  2.66E-34  4.05E-33  0.00E+00  0.00E+00  9.24E-06  1.41E-04  1.49E-03  0.00000
    392.   25.510  9.03E-06  1.39E-04  7.20E-35  1.11E-33  0.00E+00  0.00E+00  9.03E-06  1.39E-04  1.50E-03  0.00000
    394.   25.381  8.26E-06  1.28E-04  4.32E-41  6.71E-40  0.00E+00  0.00E+00  8.26E-06  1.28E-04  1.52E-03  0.00000
    396.   25.253  7.59E-06  1.19E-04  0.00E+00  0.00E+00  0.00E+00  0.00E+00  7.59E-06  1.19E-04  1.53E-03  0.00000
    398.   25.126  7.43E-06  1.18E-04  0.00E+00  0.00E+00  0.00E+00  0.00E+00  7.43E-06  1.18E-04  1.55E-03  0.00000
    400.   25.000  8.09E-06  1.29E-04  4.88E-40  7.81E-39  0.00E+00  0.00E+00  8.09E-06  1.29E-04  1.57E-03  0.00000
  iv          405
1                                             RADIANCE(WATTS/CM2-STER-XXX)
0  FREQ   WAVLEN    PATH THERMAL      SURFACE EMISSION    SURFACE REFLECTED     TOTAL RADIANCE   INTEGRAL    TOTAL
  (CM-1) (MICRN)    (CM-1)   (MICRN)    (CM-1)   (MICRN)    (CM-1)   (MICRN)    (CM-1)   (MICRN)    (CM-1)   TRANS

    402.   24.876  9.19E-06  1.49E-04  5.81E-29  9.38E-28  0.00E+00  0.00E+00  9.19E-06  1.49E-04  1.58E-03  0.00000
    404.   24.752  9.60E-06  1.57E-04  2.51E-26  4.10E-25  0.00E+00  0.00E+00  9.60E-06  1.57E-04  1.60E-03  0.00000
    406.   24.631  9.74E-06  1.61E-04  1.19E-23  1.96E-22  0.00E+00  0.00E+00  9.74E-06  1.61E-04  1.62E-03  0.00000
    408.   24.510  9.93E-06  1.65E-04  5.57E-23  9.28E-22  0.00E+00  0.00E+00  9.93E-06  1.65E-04  1.64E-03  0.00000
    410.   24.390  9.98E-06  1.68E-04  7.52E-23  1.26E-21  0.00E+00  0.00E+00  9.98E-06  1.68E-04  1.66E-03  0.00000
    412.   24.272  9.97E-06  1.69E-04  4.10E-23  6.96E-22  0.00E+00  0.00E+00  9.97E-06  1.69E-04  1.68E-03  0.00000
    414.   24.155  9.73E-06  1.67E-04  3.68E-24  6.31E-23  0.00E+00  0.00E+00  9.73E-06  1.67E-04  1.70E-03  0.00000
    416.   24.038  9.03E-06  1.56E-04  3.70E-28  6.40E-27  0.00E+00  0.00E+00  9.03E-06  1.56E-04  1.72E-03  0.00000
    418.   23.923  7.83E-06  1.37E-04  2.80E-45  4.90E-44  0.00E+00  0.00E+00  7.83E-06  1.37E-04  1.74E-03  0.00000
    420.   23.810  7.89E-06  1.39E-04  0.00E+00  0.00E+00  0.00E+00  0.00E+00  7.89E-06  1.39E-04  1.75E-03  0.00000
    422.   23.697  8.71E-06  1.55E-04  2.97E-36  5.29E-35  0.00E+00  0.00E+00  8.71E-06  1.55E-04  1.77E-03  0.00000
    424.   23.585  8.93E-06  1.61E-04  1.59E-31  2.86E-30  0.00E+00  0.00E+00  8.93E-06  1.61E-04  1.79E-03  0.00000
    426.   23.474  9.31E-06  1.69E-04  6.00E-22  1.09E-20  0.00E+00  0.00E+00  9.31E-06  1.69E-04  1.81E-03  0.00000
    428.   23.364  1.00E-05  1.83E-04  4.61E-21  8.44E-20  0.00E+00  0.00E+00  1.00E-05  1.83E-04  1.83E-03  0.00000
    430.   23.256  9.76E-06  1.80E-04  7.37E-21  1.36E-19  0.00E+00  0.00E+00  9.76E-06  1.80E-04  1.85E-03  0.00000
    432.   23.148  9.70E-06  1.81E-04  2.26E-20  4.21E-19  0.00E+00  0.00E+00  9.70E-06  1.81E-04  1.86E-03  0.00000
    434.   23.041  9.94E-06  1.87E-04  1.88E-20  3.54E-19  0.00E+00  0.00E+00  9.94E-06  1.87E-04  1.88E-03  0.00000
    436.   22.936  9.70E-06  1.84E-04  2.18E-20  4.14E-19  0.00E+00  0.00E+00  9.70E-06  1.84E-04  1.90E-03  0.00000
    438.   22.831  1.03E-05  1.97E-04  3.52E-19  6.75E-18  0.00E+00  0.00E+00  1.03E-05  1.97E-04  1.92E-03  0.00000
    440.   22.727  9.97E-06  1.93E-04  3.17E-19  6.13E-18  0.00E+00  0.00E+00  9.97E-06  1.93E-04  1.94E-03  0.00000
    442.   22.624  8.88E-06  1.73E-04  3.77E-21  7.37E-20  0.00E+00  0.00E+00  8.88E-06  1.73E-04  1.96E-03  0.00000
    444.   22.523  9.30E-06  1.83E-04  6.02E-24  1.19E-22  0.00E+00  0.00E+00  9.30E-06  1.83E-04  1.98E-03  0.00000
    446.   22.422  9.82E-06  1.95E-04  1.14E-20  2.26E-19  0.00E+00  0.00E+00  9.82E-06  1.95E-04  2.00E-03  0.00000
    448.   22.321  1.03E-05  2.07E-04  2.31E-17  4.64E-16  0.00E+00  0.00E+00  1.03E-05  2.07E-04  2.02E-03  0.00000
    450.   22.222  1.06E-05  2.14E-04  2.38E-17  4.82E-16  0.00E+00  0.00E+00  1.06E-05  2.14E-04  2.04E-03  0.00000
    452.   22.124  9.91E-06  2.02E-04  4.40E-19  9.00E-18  0.00E+00  0.00E+00  9.91E-06  2.02E-04  2.06E-03  0.00000
    454.   22.026  9.86E-06  2.03E-04  6.29E-20  1.30E-18  0.00E+00  0.00E+00  9.86E-06  2.03E-04  2.08E-03  0.00000
    456.   21.930  9.22E-06  1.92E-04  1.34E-25  2.80E-24  0.00E+00  0.00E+00  9.22E-06  1.92E-04  2.10E-03  0.00000
    458.   21.834  8.59E-06  1.80E-04  1.67E-25  3.50E-24  0.00E+00  0.00E+00  8.59E-06  1.80E-04  2.12E-03  0.00000
    460.   21.739  9.76E-06  2.07E-04  6.83E-22  1.44E-20  0.00E+00  0.00E+00  9.76E-06  2.07E-04  2.14E-03  0.00000
    462.   21.645  1.06E-05  2.25E-04  1.02E-15  2.18E-14  0.00E+00  0.00E+00  1.06E-05  2.25E-04  2.16E-03  0.00000
    464.   21.552  1.10E-05  2.38E-04  1.19E-14  2.56E-13  0.00E+00  0.00E+00  1.10E-05  2.38E-04  2.18E-03  0.00000
    466.   21.459  1.07E-05  2.33E-04  1.04E-14  2.25E-13  0.00E+00  0.00E+00  1.07E-05  2.33E-04  2.20E-03  0.00000
    468.   21.368  1.01E-05  2.22E-04  1.72E-16  3.77E-15  0.00E+00  0.00E+00  1.01E-05  2.22E-04  2.22E-03  0.00000
    470.   21.277  9.97E-06  2.20E-04  8.43E-20  1.86E-18  0.00E+00  0.00E+00  9.97E-06  2.20E-04  2.24E-03  0.00000
    472.   21.186  8.95E-06  1.99E-04  1.08E-20  2.41E-19  0.00E+00  0.00E+00  8.95E-06  1.99E-04  2.26E-03  0.00000
    474.   21.097  9.59E-06  2.15E-04  2.00E-17  4.50E-16  0.00E+00  0.00E+00  9.59E-06  2.15E-04  2.28E-03  0.00000
    476.   21.008  1.08E-05  2.45E-04  1.42E-13  3.21E-12  0.00E+00  0.00E+00  1.08E-05  2.45E-04  2.30E-03  0.00000
    478.   20.921  1.14E-05  2.60E-04  8.81E-13  2.01E-11  0.00E+00  0.00E+00  1.14E-05  2.60E-04  2.32E-03  0.00000
    480.   20.833  1.13E-05  2.59E-04  7.46E-13  1.72E-11  0.00E+00  0.00E+00  1.13E-05  2.59E-04  2.35E-03  0.00000
    482.   20.747  1.04E-05  2.42E-04  8.29E-14  1.93E-12  0.00E+00  0.00E+00  1.04E-05  2.42E-04  2.37E-03  0.00000
    484.   20.661  9.69E-06  2.27E-04  2.38E-14  5.57E-13  0.00E+00  0.00E+00  9.69E-06  2.27E-04  2.39E-03  0.00000
    486.   20.576  1.06E-05  2.50E-04  7.69E-13  1.82E-11  0.00E+00  0.00E+00  1.06E-05  2.50E-04  2.41E-03  0.00000
    488.   20.492  1.15E-05  2.73E-04  4.35E-12  1.04E-10  0.00E+00  0.00E+00  1.15E-05  2.73E-04  2.43E-03  0.00000
    490.   20.408  1.12E-05  2.70E-04  3.16E-12  7.58E-11  0.00E+00  0.00E+00  1.12E-05  2.70E-04  2.45E-03  0.00000
    492.   20.325  1.03E-05  2.50E-04  2.00E-13  4.83E-12  0.00E+00  0.00E+00  1.03E-05  2.50E-04  2.47E-03  0.00000
    494.   20.243  1.10E-05  2.70E-04  1.28E-11  3.12E-10  0.00E+00  0.00E+00  1.10E-05  2.70E-04  2.49E-03  0.00000
    496.   20.161  1.19E-05  2.93E-04  7.68E-11  1.89E-09  0.00E+00  0.00E+00  1.19E-05  2.93E-04  2.52E-03  0.00001
    498.   20.080  1.20E-05  2.96E-04  8.12E-11  2.01E-09  0.00E+00  0.00E+00  1.20E-05  2.96E-04  2.54E-03  0.00001
    500.   20.000  1.12E-05  2.79E-04  1.68E-11  4.19E-10  0.00E+00  0.00E+00  1.12E-05  2.79E-04  2.57E-03  0.00000
  iv          505
1                                             RADIANCE(WATTS/CM2-STER-XXX)
0  FREQ   WAVLEN    PATH THERMAL      SURFACE EMISSION    SURFACE REFLECTED     TOTAL RADIANCE   INTEGRAL    TOTAL
  (CM-1) (MICRN)    (CM-1)   (MICRN)    (CM-1)   (MICRN)    (CM-1)   (MICRN)    (CM-1)   (MICRN)    (CM-1)   TRANS

    502.   19.920  9.95E-06  2.51E-04  7.10E-14  1.79E-12  0.00E+00  0.00E+00  9.95E-06  2.51E-04  2.58E-03  0.00000
    504.   19.841  1.03E-05  2.62E-04  1.12E-15  2.84E-14  0.00E+00  0.00E+00  1.03E-05  2.62E-04  2.61E-03  0.00000
    506.   19.763  1.01E-05  2.59E-04  1.06E-13  2.70E-12  0.00E+00  0.00E+00  1.01E-05  2.59E-04  2.63E-03  0.00000
    508.   19.685  1.05E-05  2.71E-04  1.12E-12  2.89E-11  0.00E+00  0.00E+00  1.05E-05  2.71E-04  2.65E-03  0.00000
    510.   19.608  1.12E-05  2.90E-04  1.97E-12  5.13E-11  0.00E+00  0.00E+00  1.12E-05  2.90E-04  2.67E-03  0.00000
    512.   19.531  1.13E-05  2.97E-04  2.72E-11  7.13E-10  0.00E+00  0.00E+00  1.13E-05  2.97E-04  2.69E-03  0.00000
    514.   19.455  1.14E-05  3.01E-04  2.65E-11  6.99E-10  0.00E+00  0.00E+00  1.14E-05  3.01E-04  2.71E-03  0.00000
    516.   19.380  1.02E-05  2.71E-04  5.74E-13  1.53E-11  0.00E+00  0.00E+00  1.02E-05  2.71E-04  2.73E-03  0.00000
    518.   19.305  9.53E-06  2.56E-04  2.88E-15  7.73E-14  0.00E+00  0.00E+00  9.53E-06  2.56E-04  2.75E-03  0.00000
    520.   19.231  1.02E-05  2.77E-04  3.60E-12  9.74E-11  0.00E+00  0.00E+00  1.02E-05  2.77E-04  2.77E-03  0.00000
    522.   19.157  1.15E-05  3.14E-04  1.93E-11  5.27E-10  0.00E+00  0.00E+00  1.15E-05  3.14E-04  2.80E-03  0.00000
    524.   19.084  1.11E-05  3.04E-04  1.24E-11  3.41E-10  0.00E+00  0.00E+00  1.11E-05  3.04E-04  2.82E-03  0.00000
    526.   19.011  1.03E-05  2.85E-04  1.31E-11  3.63E-10  0.00E+00  0.00E+00  1.03E-05  2.85E-04  2.84E-03  0.00000
    528.   18.939  1.16E-05  3.22E-04  4.80E-10  1.34E-08  0.00E+00  0.00E+00  1.16E-05  3.22E-04  2.86E-03  0.00003
    530.   18.868  1.24E-05  3.47E-04  3.36E-09  9.44E-08  0.00E+00  0.00E+00  1.24E-05  3.47E-04  2.89E-03  0.00023
    532.   18.797  1.24E-05  3.51E-04  4.66E-09  1.32E-07  0.00E+00  0.00E+00  1.24E-05  3.51E-04  2.91E-03  0.00031
    534.   18.727  1.19E-05  3.39E-04  1.58E-09  4.50E-08  0.00E+00  0.00E+00  1.19E-05  3.39E-04  2.94E-03  0.00011
    536.   18.657  1.12E-05  3.22E-04  5.07E-10  1.46E-08  0.00E+00  0.00E+00  1.12E-05  3.22E-04  2.96E-03  0.00003
    538.   18.587  1.19E-05  3.45E-04  3.38E-09  9.78E-08  0.00E+00  0.00E+00  1.19E-05  3.45E-04  2.98E-03  0.00023
    540.   18.519  1.20E-05  3.50E-04  3.56E-09  1.04E-07  0.00E+00  0.00E+00  1.20E-05  3.51E-04  3.01E-03  0.00024
    542.   18.450  1.19E-05  3.49E-04  1.54E-09  4.54E-08  0.00E+00  0.00E+00  1.19E-05  3.49E-04  3.03E-03  0.00010
    544.   18.382  1.12E-05  3.31E-04  1.03E-09  3.05E-08  0.00E+00  0.00E+00  1.12E-05  3.31E-04  3.05E-03  0.00007
    546.   18.315  1.01E-05  3.02E-04  1.40E-11  4.18E-10  0.00E+00  0.00E+00  1.01E-05  3.02E-04  3.07E-03  0.00000
    548.   18.248  1.08E-05  3.26E-04  9.60E-11  2.88E-09  0.00E+00  0.00E+00  1.08E-05  3.26E-04  3.10E-03  0.00001
    550.   18.182  1.13E-05  3.42E-04  6.28E-10  1.90E-08  0.00E+00  0.00E+00  1.13E-05  3.42E-04  3.12E-03  0.00004
    552.   18.116  1.19E-05  3.64E-04  4.25E-09  1.30E-07  0.00E+00  0.00E+00  1.19E-05  3.64E-04  3.14E-03  0.00029
    554.   18.051  1.18E-05  3.62E-04  4.22E-09  1.29E-07  0.00E+00  0.00E+00  1.18E-05  3.63E-04  3.17E-03  0.00028
    556.   17.986  1.18E-05  3.65E-04  5.22E-09  1.61E-07  0.00E+00  0.00E+00  1.18E-05  3.65E-04  3.19E-03  0.00035
    558.   17.921  1.24E-05  3.86E-04  1.62E-08  5.05E-07  0.00E+00  0.00E+00  1.24E-05  3.87E-04  3.21E-03  0.00109
    560.   17.857  1.26E-05  3.96E-04  2.94E-08  9.22E-07  0.00E+00  0.00E+00  1.27E-05  3.97E-04  3.24E-03  0.00197
    562.   17.794  1.21E-05  3.82E-04  1.99E-08  6.29E-07  0.00E+00  0.00E+00  1.21E-05  3.83E-04  3.26E-03  0.00133
    564.   17.730  1.18E-05  3.76E-04  5.28E-09  1.68E-07  0.00E+00  0.00E+00  1.18E-05  3.76E-04  3.29E-03  0.00035
    566.   17.668  1.14E-05  3.65E-04  2.41E-09  7.72E-08  0.00E+00  0.00E+00  1.14E-05  3.65E-04  3.31E-03  0.00016
    568.   17.606  1.03E-05  3.32E-04  7.71E-11  2.49E-09  0.00E+00  0.00E+00  1.03E-05  3.32E-04  3.33E-03  0.00001
    570.   17.544  1.06E-05  3.45E-04  7.92E-11  2.57E-09  0.00E+00  0.00E+00  1.06E-05  3.45E-04  3.35E-03  0.00001
    572.   17.483  1.17E-05  3.84E-04  4.63E-09  1.51E-07  0.00E+00  0.00E+00  1.17E-05  3.84E-04  3.37E-03  0.00031
    574.   17.422  1.17E-05  3.86E-04  7.46E-09  2.46E-07  0.00E+00  0.00E+00  1.17E-05  3.87E-04  3.40E-03  0.00050
    576.   17.361  1.07E-05  3.54E-04  1.73E-09  5.74E-08  0.00E+00  0.00E+00  1.07E-05  3.55E-04  3.42E-03  0.00012
    578.   17.301  1.10E-05  3.68E-04  1.69E-09  5.65E-08  0.00E+00  0.00E+00  1.10E-05  3.68E-04  3.44E-03  0.00011
    580.   17.241  1.06E-05  3.57E-04  1.22E-09  4.12E-08  0.00E+00  0.00E+00  1.06E-05  3.57E-04  3.46E-03  0.00008
    582.   17.182  1.03E-05  3.50E-04  8.57E-10  2.90E-08  0.00E+00  0.00E+00  1.03E-05  3.50E-04  3.48E-03  0.00006
    584.   17.123  1.05E-05  3.57E-04  1.42E-09  4.84E-08  0.00E+00  0.00E+00  1.05E-05  3.58E-04  3.50E-03  0.00009
    586.   17.065  1.02E-05  3.52E-04  6.20E-09  2.13E-07  0.00E+00  0.00E+00  1.02E-05  3.52E-04  3.53E-03  0.00041
    588.   17.007  1.03E-05  3.56E-04  1.25E-08  4.33E-07  0.00E+00  0.00E+00  1.03E-05  3.56E-04  3.55E-03  0.00083
    590.   16.949  9.54E-06  3.32E-04  4.20E-09  1.46E-07  0.00E+00  0.00E+00  9.54E-06  3.32E-04  3.56E-03  0.00028
    592.   16.892  8.87E-06  3.11E-04  5.75E-11  2.01E-09  0.00E+00  0.00E+00  8.87E-06  3.11E-04  3.58E-03  0.00000
    594.   16.835  8.52E-06  3.01E-04  3.81E-11  1.34E-09  0.00E+00  0.00E+00  8.52E-06  3.01E-04  3.60E-03  0.00000
    596.   16.779  7.87E-06  2.80E-04  2.40E-10  8.54E-09  0.00E+00  0.00E+00  7.87E-06  2.80E-04  3.62E-03  0.00002
    598.   16.722  8.16E-06  2.92E-04  1.02E-09  3.64E-08  0.00E+00  0.00E+00  8.16E-06  2.92E-04  3.63E-03  0.00007
    600.   16.667  8.81E-06  3.17E-04  1.15E-09  4.14E-08  0.00E+00  0.00E+00  8.81E-06  3.17E-04  3.65E-03  0.00008
  iv          605
1                                             RADIANCE(WATTS/CM2-STER-XXX)
0  FREQ   WAVLEN    PATH THERMAL      SURFACE EMISSION    SURFACE REFLECTED     TOTAL RADIANCE   INTEGRAL    TOTAL
  (CM-1) (MICRN)    (CM-1)   (MICRN)    (CM-1)   (MICRN)    (CM-1)   (MICRN)    (CM-1)   (MICRN)    (CM-1)   TRANS

    602.   16.611  8.40E-06  3.04E-04  1.95E-09  7.06E-08  0.00E+00  0.00E+00  8.40E-06  3.04E-04  3.67E-03  0.00013
    604.   16.556  8.01E-06  2.92E-04  1.57E-09  5.72E-08  0.00E+00  0.00E+00  8.01E-06  2.92E-04  3.68E-03  0.00010
    606.   16.502  7.73E-06  2.84E-04  1.80E-09  6.59E-08  0.00E+00  0.00E+00  7.73E-06  2.84E-04  3.70E-03  0.00012
    608.   16.447  7.62E-06  2.82E-04  2.41E-09  8.90E-08  0.00E+00  0.00E+00  7.62E-06  2.82E-04  3.71E-03  0.00016
    610.   16.393  7.92E-06  2.95E-04  2.98E-09  1.11E-07  0.00E+00  0.00E+00  7.93E-06  2.95E-04  3.73E-03  0.00020
    612.   16.340  7.95E-06  2.98E-04  2.43E-09  9.12E-08  0.00E+00  0.00E+00  7.96E-06  2.98E-04  3.74E-03  0.00016
    614.   16.287  7.25E-06  2.73E-04  5.57E-10  2.10E-08  0.00E+00  0.00E+00  7.25E-06  2.73E-04  3.76E-03  0.00004
    616.   16.234  6.16E-06  2.34E-04  8.39E-11  3.18E-09  0.00E+00  0.00E+00  6.16E-06  2.34E-04  3.77E-03  0.00001
    618.   16.181  5.97E-06  2.28E-04  8.09E-12  3.09E-10  0.00E+00  0.00E+00  5.97E-06  2.28E-04  3.78E-03  0.00000
    620.   16.129  6.84E-06  2.63E-04  6.76E-11  2.60E-09  0.00E+00  0.00E+00  6.84E-06  2.63E-04  3.80E-03  0.00000
    622.   16.077  6.77E-06  2.62E-04  3.02E-10  1.17E-08  0.00E+00  0.00E+00  6.77E-06  2.62E-04  3.81E-03  0.00002
    624.   16.026  6.27E-06  2.44E-04  2.12E-10  8.24E-09  0.00E+00  0.00E+00  6.27E-06  2.44E-04  3.82E-03  0.00001
    626.   15.974  5.85E-06  2.29E-04  1.47E-12  5.75E-11  0.00E+00  0.00E+00  5.85E-06  2.29E-04  3.83E-03  0.00000
    628.   15.924  5.49E-06  2.17E-04  2.65E-12  1.05E-10  0.00E+00  0.00E+00  5.49E-06  2.17E-04  3.85E-03  0.00000
    630.   15.873  5.26E-06  2.09E-04  2.04E-12  8.10E-11  0.00E+00  0.00E+00  5.26E-06  2.09E-04  3.86E-03  0.00000
    632.   15.823  5.07E-06  2.03E-04  1.15E-13  4.61E-12  0.00E+00  0.00E+00  5.07E-06  2.03E-04  3.87E-03  0.00000
    634.   15.773  4.91E-06  1.97E-04  1.19E-14  4.77E-13  0.00E+00  0.00E+00  4.91E-06  1.97E-04  3.88E-03  0.00000
    636.   15.723  4.76E-06  1.92E-04  2.76E-17  1.12E-15  0.00E+00  0.00E+00  4.76E-06  1.92E-04  3.89E-03  0.00000
    638.   15.674  4.67E-06  1.90E-04  1.76E-19  7.15E-18  0.00E+00  0.00E+00  4.67E-06  1.90E-04  3.90E-03  0.00000
    640.   15.625  4.64E-06  1.90E-04  7.76E-21  3.18E-19  0.00E+00  0.00E+00  4.64E-06  1.90E-04  3.90E-03  0.00000
    642.   15.576  4.66E-06  1.92E-04  9.85E-22  4.06E-20  0.00E+00  0.00E+00  4.66E-06  1.92E-04  3.91E-03  0.00000
    644.   15.528  4.74E-06  1.97E-04  9.31E-25  3.86E-23  0.00E+00  0.00E+00  4.74E-06  1.97E-04  3.92E-03  0.00000
    646.   15.480  4.89E-06  2.04E-04  3.42E-27  1.43E-25  0.00E+00  0.00E+00  4.89E-06  2.04E-04  3.93E-03  0.00000
    648.   15.432  5.39E-06  2.26E-04  1.59E-28  6.68E-27  0.00E+00  0.00E+00  5.39E-06  2.26E-04  3.94E-03  0.00000
    650.   15.385  5.47E-06  2.31E-04  3.15E-33  1.33E-31  0.00E+00  0.00E+00  5.47E-06  2.31E-04  3.95E-03  0.00000
    652.   15.337  5.11E-06  2.17E-04  9.76E-33  4.15E-31  0.00E+00  0.00E+00  5.11E-06  2.17E-04  3.96E-03  0.00000
    654.   15.291  4.97E-06  2.13E-04  2.32E-27  9.90E-26  0.00E+00  0.00E+00  4.97E-06  2.13E-04  3.97E-03  0.00000
    656.   15.244  4.95E-06  2.13E-04  2.32E-27  9.96E-26  0.00E+00  0.00E+00  4.95E-06  2.13E-04  3.98E-03  0.00000
    658.   15.198  5.05E-06  2.19E-04  1.85E-32  8.00E-31  0.00E+00  0.00E+00  5.05E-06  2.19E-04  3.99E-03  0.00000
    660.   15.152  5.03E-06  2.19E-04  2.02E-32  8.80E-31  0.00E+00  0.00E+00  5.03E-06  2.19E-04  4.00E-03  0.00000
    662.   15.106  5.34E-06  2.34E-04  1.93E-32  8.47E-31  0.00E+00  0.00E+00  5.34E-06  2.34E-04  4.02E-03  0.00000
    664.   15.060  5.38E-06  2.37E-04  0.00E+00  0.00E+00  0.00E+00  0.00E+00  5.38E-06  2.37E-04  4.03E-03  0.00000
    666.   15.015  6.00E-06  2.66E-04  0.00E+00  0.00E+00  0.00E+00  0.00E+00  6.00E-06  2.66E-04  4.04E-03  0.00000
    668.   14.970  7.22E-06  3.22E-04  0.00E+00  0.00E+00  0.00E+00  0.00E+00  7.22E-06  3.22E-04  4.05E-03  0.00000
    670.   14.925  6.22E-06  2.79E-04  0.00E+00  0.00E+00  0.00E+00  0.00E+00  6.22E-06  2.79E-04  4.07E-03  0.00000
    672.   14.881  5.20E-06  2.35E-04  6.74E-38  3.04E-36  0.00E+00  0.00E+00  5.20E-06  2.35E-04  4.08E-03  0.00000
    674.   14.837  5.02E-06  2.28E-04  4.43E-32  2.01E-30  0.00E+00  0.00E+00  5.02E-06  2.28E-04  4.09E-03  0.00000
    676.   14.793  4.92E-06  2.25E-04  1.33E-31  6.07E-30  0.00E+00  0.00E+00  4.92E-06  2.25E-04  4.10E-03  0.00000
    678.   14.749  5.02E-06  2.31E-04  4.43E-32  2.03E-30  0.00E+00  0.00E+00  5.02E-06  2.31E-04  4.11E-03  0.00000
    680.   14.706  4.98E-06  2.30E-04  5.96E-38  2.76E-36  0.00E+00  0.00E+00  4.98E-06  2.30E-04  4.12E-03  0.00000
    682.   14.663  4.90E-06  2.28E-04  4.19E-30  1.95E-28  0.00E+00  0.00E+00  4.90E-06  2.28E-04  4.13E-03  0.00000
    684.   14.620  4.67E-06  2.19E-04  1.40E-29  6.53E-28  0.00E+00  0.00E+00  4.67E-06  2.19E-04  4.13E-03  0.00000
    686.   14.577  4.61E-06  2.17E-04  8.37E-30  3.94E-28  0.00E+00  0.00E+00  4.61E-06  2.17E-04  4.14E-03  0.00000
    688.   14.535  4.57E-06  2.16E-04  1.54E-30  7.31E-29  0.00E+00  0.00E+00  4.57E-06  2.16E-04  4.15E-03  0.00000
    690.   14.493  4.46E-06  2.13E-04  3.66E-22  1.74E-20  0.00E+00  0.00E+00  4.46E-06  2.13E-04  4.16E-03  0.00000
    692.   14.451  4.20E-06  2.01E-04  1.28E-21  6.15E-20  0.00E+00  0.00E+00  4.20E-06  2.01E-04  4.17E-03  0.00000
    694.   14.409  4.16E-06  2.00E-04  1.04E-21  5.02E-20  0.00E+00  0.00E+00  4.16E-06  2.00E-04  4.18E-03  0.00000
    696.   14.368  4.11E-06  1.99E-04  2.33E-20  1.13E-18  0.00E+00  0.00E+00  4.11E-06  1.99E-04  4.19E-03  0.00000
    698.   14.327  4.17E-06  2.03E-04  1.83E-15  8.93E-14  0.00E+00  0.00E+00  4.17E-06  2.03E-04  4.20E-03  0.00000
    700.   14.286  4.23E-06  2.07E-04  5.62E-15  2.75E-13  0.00E+00  0.00E+00  4.23E-06  2.07E-04  4.20E-03  0.00000
  iv          705
1                                             RADIANCE(WATTS/CM2-STER-XXX)
0  FREQ   WAVLEN    PATH THERMAL      SURFACE EMISSION    SURFACE REFLECTED     TOTAL RADIANCE   INTEGRAL    TOTAL
  (CM-1) (MICRN)    (CM-1)   (MICRN)    (CM-1)   (MICRN)    (CM-1)   (MICRN)    (CM-1)   (MICRN)    (CM-1)   TRANS

    702.   14.245  4.29E-06  2.12E-04  2.27E-15  1.12E-13  0.00E+00  0.00E+00  4.29E-06  2.12E-04  4.21E-03  0.00000
    704.   14.205  4.57E-06  2.26E-04  7.91E-15  3.92E-13  0.00E+00  0.00E+00  4.57E-06  2.26E-04  4.22E-03  0.00000
    706.   14.164  4.88E-06  2.43E-04  4.20E-13  2.09E-11  0.00E+00  0.00E+00  4.88E-06  2.43E-04  4.23E-03  0.00000
    708.   14.124  5.08E-06  2.55E-04  2.91E-11  1.46E-09  0.00E+00  0.00E+00  5.08E-06  2.55E-04  4.24E-03  0.00000
    710.   14.085  5.25E-06  2.65E-04  2.38E-10  1.20E-08  0.00E+00  0.00E+00  5.25E-06  2.65E-04  4.25E-03  0.00002
    712.   14.045  5.56E-06  2.82E-04  5.15E-10  2.61E-08  0.00E+00  0.00E+00  5.56E-06  2.82E-04  4.26E-03  0.00004
    714.   14.006  5.86E-06  2.99E-04  1.05E-09  5.37E-08  0.00E+00  0.00E+00  5.86E-06  2.99E-04  4.27E-03  0.00007
    716.   13.966  5.96E-06  3.05E-04  2.29E-09  1.17E-07  0.00E+00  0.00E+00  5.96E-06  3.05E-04  4.29E-03  0.00016
    718.   13.928  5.27E-06  2.72E-04  1.07E-09  5.53E-08  0.00E+00  0.00E+00  5.27E-06  2.72E-04  4.30E-03  0.00008
    720.   13.889  4.68E-06  2.43E-04  2.21E-11  1.15E-09  0.00E+00  0.00E+00  4.68E-06  2.43E-04  4.31E-03  0.00000
    722.   13.850  5.91E-06  3.08E-04  1.27E-08  6.63E-07  0.00E+00  0.00E+00  5.92E-06  3.09E-04  4.32E-03  0.00090
    724.   13.812  7.03E-06  3.68E-04  5.96E-08  3.12E-06  0.00E+00  0.00E+00  7.09E-06  3.72E-04  4.33E-03  0.00422
    726.   13.774  7.51E-06  3.96E-04  1.18E-07  6.22E-06  0.00E+00  0.00E+00  7.63E-06  4.02E-04  4.35E-03  0.00836
    728.   13.736  7.22E-06  3.83E-04  6.50E-08  3.44E-06  0.00E+00  0.00E+00  7.29E-06  3.86E-04  4.36E-03  0.00461
    730.   13.699  6.69E-06  3.57E-04  1.93E-08  1.03E-06  0.00E+00  0.00E+00  6.71E-06  3.58E-04  4.38E-03  0.00137
    732.   13.661  6.65E-06  3.56E-04  2.86E-08  1.53E-06  0.00E+00  0.00E+00  6.68E-06  3.58E-04  4.39E-03  0.00204
    734.   13.624  6.78E-06  3.65E-04  4.12E-08  2.22E-06  0.00E+00  0.00E+00  6.82E-06  3.67E-04  4.40E-03  0.00294
    736.   13.587  6.81E-06  3.69E-04  4.41E-08  2.39E-06  0.00E+00  0.00E+00  6.85E-06  3.71E-04  4.42E-03  0.00315
    738.   13.550  6.74E-06  3.67E-04  3.18E-08  1.73E-06  0.00E+00  0.00E+00  6.77E-06  3.69E-04  4.43E-03  0.00228
    740.   13.514  6.30E-06  3.45E-04  1.09E-08  5.96E-07  0.00E+00  0.00E+00  6.32E-06  3.46E-04  4.44E-03  0.00078
    742.   13.477  6.53E-06  3.59E-04  4.58E-08  2.52E-06  0.00E+00  0.00E+00  6.57E-06  3.62E-04  4.46E-03  0.00329
    744.   13.441  7.75E-06  4.29E-04  1.30E-07  7.17E-06  0.00E+00  0.00E+00  7.88E-06  4.36E-04  4.47E-03  0.00932
    746.   13.405  8.21E-06  4.57E-04  2.72E-07  1.51E-05  0.00E+00  0.00E+00  8.48E-06  4.72E-04  4.49E-03  0.01958
    748.   13.369  8.41E-06  4.70E-04  3.43E-07  1.92E-05  0.00E+00  0.00E+00  8.75E-06  4.89E-04  4.51E-03  0.02474
    750.   13.333  8.57E-06  4.82E-04  4.51E-07  2.54E-05  0.00E+00  0.00E+00  9.02E-06  5.08E-04  4.52E-03  0.03266
    752.   13.298  8.81E-06  4.98E-04  4.85E-07  2.74E-05  0.00E+00  0.00E+00  9.29E-06  5.25E-04  4.54E-03  0.03512
    754.   13.263  8.97E-06  5.10E-04  3.47E-07  1.97E-05  0.00E+00  0.00E+00  9.31E-06  5.29E-04  4.56E-03  0.02521
    756.   13.228  8.99E-06  5.14E-04  5.59E-07  3.19E-05  0.00E+00  0.00E+00  9.55E-06  5.46E-04  4.58E-03  0.04069
    758.   13.193  9.01E-06  5.18E-04  1.33E-06  7.62E-05  0.00E+00  0.00E+00  1.03E-05  5.94E-04  4.60E-03  0.09666
    760.   13.158  9.21E-06  5.32E-04  1.78E-06  1.03E-04  0.00E+00  0.00E+00  1.10E-05  6.35E-04  4.62E-03  0.13005
    762.   13.123  9.16E-06  5.32E-04  2.17E-06  1.26E-04  0.00E+00  0.00E+00  1.13E-05  6.58E-04  4.65E-03  0.15878
    764.   13.089  8.98E-06  5.24E-04  2.63E-06  1.53E-04  0.00E+00  0.00E+00  1.16E-05  6.77E-04  4.67E-03  0.19253
    766.   13.055  9.07E-06  5.32E-04  2.69E-06  1.58E-04  0.00E+00  0.00E+00  1.18E-05  6.90E-04  4.69E-03  0.19779
    768.   13.021  9.33E-06  5.51E-04  2.33E-06  1.37E-04  0.00E+00  0.00E+00  1.17E-05  6.88E-04  4.72E-03  0.17142
    770.   12.987  9.37E-06  5.55E-04  2.27E-06  1.35E-04  0.00E+00  0.00E+00  1.16E-05  6.90E-04  4.74E-03  0.16768
    772.   12.953  8.85E-06  5.27E-04  3.21E-06  1.91E-04  0.00E+00  0.00E+00  1.21E-05  7.19E-04  4.76E-03  0.23754
    774.   12.920  8.97E-06  5.37E-04  3.07E-06  1.84E-04  0.00E+00  0.00E+00  1.20E-05  7.21E-04  4.79E-03  0.22724
    776.   12.887  9.55E-06  5.75E-04  1.95E-06  1.18E-04  0.00E+00  0.00E+00  1.15E-05  6.93E-04  4.81E-03  0.14497
    778.   12.853  9.29E-06  5.63E-04  2.35E-06  1.42E-04  0.00E+00  0.00E+00  1.16E-05  7.05E-04  4.83E-03  0.17479
    780.   12.821  8.73E-06  5.31E-04  3.36E-06  2.04E-04  0.00E+00  0.00E+00  1.21E-05  7.36E-04  4.86E-03  0.25045
    782.   12.788  8.57E-06  5.24E-04  3.45E-06  2.11E-04  0.00E+00  0.00E+00  1.20E-05  7.35E-04  4.88E-03  0.25782
    784.   12.755  9.19E-06  5.65E-04  2.30E-06  1.41E-04  0.00E+00  0.00E+00  1.15E-05  7.07E-04  4.90E-03  0.17232
    786.   12.723  8.68E-06  5.36E-04  3.30E-06  2.04E-04  0.00E+00  0.00E+00  1.20E-05  7.40E-04  4.93E-03  0.24761
    788.   12.690  7.94E-06  4.93E-04  4.40E-06  2.73E-04  0.00E+00  0.00E+00  1.23E-05  7.66E-04  4.95E-03  0.33100
    790.   12.658  7.99E-06  4.99E-04  3.78E-06  2.36E-04  0.00E+00  0.00E+00  1.18E-05  7.34E-04  4.98E-03  0.28467
    792.   12.626  8.54E-06  5.35E-04  2.13E-06  1.34E-04  0.00E+00  0.00E+00  1.07E-05  6.69E-04  5.00E-03  0.16080
    794.   12.594  9.35E-06  5.89E-04  1.60E-06  1.01E-04  0.00E+00  0.00E+00  1.10E-05  6.90E-04  5.02E-03  0.12149
    796.   12.563  9.47E-06  6.00E-04  1.60E-06  1.01E-04  0.00E+00  0.00E+00  1.11E-05  7.01E-04  5.04E-03  0.12115
    798.   12.531  9.36E-06  5.96E-04  1.52E-06  9.68E-05  0.00E+00  0.00E+00  1.09E-05  6.93E-04  5.06E-03  0.11565
    800.   12.500  8.59E-06  5.50E-04  2.75E-06  1.76E-04  0.00E+00  0.00E+00  1.13E-05  7.26E-04  5.09E-03  0.20990
  iv          805
1                                             RADIANCE(WATTS/CM2-STER-XXX)
0  FREQ   WAVLEN    PATH THERMAL      SURFACE EMISSION    SURFACE REFLECTED     TOTAL RADIANCE   INTEGRAL    TOTAL
  (CM-1) (MICRN)    (CM-1)   (MICRN)    (CM-1)   (MICRN)    (CM-1)   (MICRN)    (CM-1)   (MICRN)    (CM-1)   TRANS

    802.   12.469  8.44E-06  5.43E-04  3.29E-06  2.11E-04  0.00E+00  0.00E+00  1.17E-05  7.54E-04  5.11E-03  0.25112
    804.   12.438  8.68E-06  5.61E-04  2.80E-06  1.81E-04  0.00E+00  0.00E+00  1.15E-05  7.42E-04  5.13E-03  0.21418
    806.   12.407  8.20E-06  5.33E-04  3.50E-06  2.27E-04  0.00E+00  0.00E+00  1.17E-05  7.60E-04  5.16E-03  0.26866
    808.   12.376  8.30E-06  5.42E-04  3.28E-06  2.14E-04  0.00E+00  0.00E+00  1.16E-05  7.56E-04  5.18E-03  0.25234
    810.   12.346  7.57E-06  4.97E-04  4.32E-06  2.84E-04  0.00E+00  0.00E+00  1.19E-05  7.80E-04  5.20E-03  0.33341
    812.   12.315  7.42E-06  4.89E-04  4.53E-06  2.99E-04  0.00E+00  0.00E+00  1.20E-05  7.88E-04  5.23E-03  0.35024
    814.   12.285  8.25E-06  5.47E-04  3.33E-06  2.21E-04  0.00E+00  0.00E+00  1.16E-05  7.67E-04  5.25E-03  0.25801
    816.   12.255  7.73E-06  5.15E-04  4.02E-06  2.68E-04  0.00E+00  0.00E+00  1.18E-05  7.83E-04  5.27E-03  0.31273
    818.   12.225  6.88E-06  4.60E-04  5.18E-06  3.46E-04  0.00E+00  0.00E+00  1.21E-05  8.07E-04  5.30E-03  0.40331
    820.   12.195  6.74E-06  4.53E-04  5.32E-06  3.58E-04  0.00E+00  0.00E+00  1.21E-05  8.11E-04  5.32E-03  0.41538
    822.   12.165  6.70E-06  4.53E-04  5.35E-06  3.61E-04  0.00E+00  0.00E+00  1.20E-05  8.14E-04  5.35E-03  0.41842
    824.   12.136  6.92E-06  4.70E-04  5.00E-06  3.39E-04  0.00E+00  0.00E+00  1.19E-05  8.09E-04  5.37E-03  0.39213
    826.   12.107  7.45E-06  5.08E-04  4.27E-06  2.91E-04  0.00E+00  0.00E+00  1.17E-05  7.99E-04  5.39E-03  0.33557
    828.   12.077  7.65E-06  5.24E-04  3.92E-06  2.69E-04  0.00E+00  0.00E+00  1.16E-05  7.93E-04  5.42E-03  0.30913
    830.   12.048  6.72E-06  4.63E-04  5.13E-06  3.53E-04  0.00E+00  0.00E+00  1.19E-05  8.16E-04  5.44E-03  0.40572
    832.   12.019  6.34E-06  4.39E-04  5.61E-06  3.89E-04  0.00E+00  0.00E+00  1.20E-05  8.28E-04  5.46E-03  0.44506
    834.   11.990  6.40E-06  4.45E-04  5.51E-06  3.83E-04  0.00E+00  0.00E+00  1.19E-05  8.28E-04  5.49E-03  0.43798
    836.   11.962  6.58E-06  4.60E-04  5.25E-06  3.67E-04  0.00E+00  0.00E+00  1.18E-05  8.27E-04  5.51E-03  0.41842
    838.   11.933  6.71E-06  4.71E-04  5.00E-06  3.51E-04  0.00E+00  0.00E+00  1.17E-05  8.22E-04  5.54E-03  0.39922
    840.   11.905  7.30E-06  5.15E-04  4.11E-06  2.90E-04  0.00E+00  0.00E+00  1.14E-05  8.05E-04  5.56E-03  0.32944
    842.   11.876  6.77E-06  4.80E-04  4.79E-06  3.40E-04  0.00E+00  0.00E+00  1.16E-05  8.20E-04  5.58E-03  0.38518
    844.   11.848  6.13E-06  4.37E-04  5.59E-06  3.98E-04  0.00E+00  0.00E+00  1.17E-05  8.35E-04  5.60E-03  0.45005
    846.   11.820  6.01E-06  4.30E-04  5.69E-06  4.07E-04  0.00E+00  0.00E+00  1.17E-05  8.38E-04  5.63E-03  0.45943
    848.   11.792  6.30E-06  4.53E-04  5.25E-06  3.78E-04  0.00E+00  0.00E+00  1.16E-05  8.31E-04  5.65E-03  0.42526
    850.   11.765  7.13E-06  5.15E-04  4.00E-06  2.89E-04  0.00E+00  0.00E+00  1.11E-05  8.04E-04  5.67E-03  0.32440
    852.   11.737  7.88E-06  5.72E-04  2.88E-06  2.09E-04  0.00E+00  0.00E+00  1.08E-05  7.81E-04  5.69E-03  0.23436
    854.   11.710  7.59E-06  5.54E-04  3.38E-06  2.47E-04  0.00E+00  0.00E+00  1.10E-05  8.00E-04  5.72E-03  0.27607
    856.   11.682  6.42E-06  4.70E-04  4.96E-06  3.63E-04  0.00E+00  0.00E+00  1.14E-05  8.34E-04  5.74E-03  0.40606
    858.   11.655  5.83E-06  4.29E-04  5.73E-06  4.22E-04  0.00E+00  0.00E+00  1.16E-05  8.51E-04  5.76E-03  0.47034
    860.   11.628  5.82E-06  4.30E-04  5.70E-06  4.22E-04  0.00E+00  0.00E+00  1.15E-05  8.52E-04  5.79E-03  0.46948
    862.   11.601  5.58E-06  4.15E-04  5.96E-06  4.43E-04  0.00E+00  0.00E+00  1.15E-05  8.57E-04  5.81E-03  0.49153
    864.   11.574  6.05E-06  4.51E-04  5.29E-06  3.95E-04  0.00E+00  0.00E+00  1.13E-05  8.47E-04  5.83E-03  0.43803
    866.   11.547  6.05E-06  4.54E-04  5.26E-06  3.94E-04  0.00E+00  0.00E+00  1.13E-05  8.48E-04  5.85E-03  0.43639
    868.   11.521  5.42E-06  4.08E-04  6.03E-06  4.54E-04  0.00E+00  0.00E+00  1.15E-05  8.63E-04  5.88E-03  0.50195
    870.   11.494  5.77E-06  4.37E-04  5.48E-06  4.15E-04  0.00E+00  0.00E+00  1.13E-05  8.52E-04  5.90E-03  0.45732
    872.   11.468  5.80E-06  4.41E-04  5.40E-06  4.11E-04  0.00E+00  0.00E+00  1.12E-05  8.52E-04  5.92E-03  0.45230
    874.   11.442  5.30E-06  4.05E-04  6.05E-06  4.63E-04  0.00E+00  0.00E+00  1.14E-05  8.67E-04  5.94E-03  0.50829
    876.   11.416  5.27E-06  4.05E-04  6.04E-06  4.64E-04  0.00E+00  0.00E+00  1.13E-05  8.68E-04  5.97E-03  0.50882
    878.   11.390  5.65E-06  4.36E-04  5.51E-06  4.24E-04  0.00E+00  0.00E+00  1.12E-05  8.60E-04  5.99E-03  0.46485
    880.   11.364  5.72E-06  4.43E-04  5.36E-06  4.15E-04  0.00E+00  0.00E+00  1.11E-05  8.58E-04  6.01E-03  0.45400
    882.   11.338  5.65E-06  4.39E-04  5.44E-06  4.23E-04  0.00E+00  0.00E+00  1.11E-05  8.62E-04  6.03E-03  0.46155
    884.   11.312  5.80E-06  4.53E-04  5.18E-06  4.05E-04  0.00E+00  0.00E+00  1.10E-05  8.58E-04  6.06E-03  0.44114
    886.   11.287  5.72E-06  4.49E-04  5.18E-06  4.07E-04  0.00E+00  0.00E+00  1.09E-05  8.56E-04  6.08E-03  0.44282
    888.   11.261  5.93E-06  4.67E-04  4.90E-06  3.86E-04  0.00E+00  0.00E+00  1.08E-05  8.54E-04  6.10E-03  0.41981
    890.   11.236  5.66E-06  4.48E-04  5.27E-06  4.18E-04  0.00E+00  0.00E+00  1.09E-05  8.66E-04  6.12E-03  0.45316
    892.   11.211  5.10E-06  4.06E-04  5.92E-06  4.71E-04  0.00E+00  0.00E+00  1.10E-05  8.77E-04  6.14E-03  0.51042
    894.   11.186  4.80E-06  3.83E-04  6.25E-06  5.00E-04  0.00E+00  0.00E+00  1.11E-05  8.83E-04  6.17E-03  0.54076
    896.   11.161  4.88E-06  3.92E-04  6.12E-06  4.91E-04  0.00E+00  0.00E+00  1.10E-05  8.83E-04  6.19E-03  0.53035
    898.   11.136  4.94E-06  3.99E-04  6.00E-06  4.84E-04  0.00E+00  0.00E+00  1.09E-05  8.83E-04  6.21E-03  0.52219
    900.   11.111  4.72E-06  3.82E-04  6.23E-06  5.05E-04  0.00E+00  0.00E+00  1.09E-05  8.87E-04  6.23E-03  0.54369
  iv          905
1                                             RADIANCE(WATTS/CM2-STER-XXX)
0  FREQ   WAVLEN    PATH THERMAL      SURFACE EMISSION    SURFACE REFLECTED     TOTAL RADIANCE   INTEGRAL    TOTAL
  (CM-1) (MICRN)    (CM-1)   (MICRN)    (CM-1)   (MICRN)    (CM-1)   (MICRN)    (CM-1)   (MICRN)    (CM-1)   TRANS

    902.   11.086  4.64E-06  3.78E-04  6.28E-06  5.11E-04  0.00E+00  0.00E+00  1.09E-05  8.89E-04  6.25E-03  0.54970
    904.   11.062  4.76E-06  3.89E-04  6.09E-06  4.98E-04  0.00E+00  0.00E+00  1.09E-05  8.87E-04  6.27E-03  0.53449
    906.   11.038  5.09E-06  4.18E-04  5.65E-06  4.63E-04  0.00E+00  0.00E+00  1.07E-05  8.81E-04  6.30E-03  0.49714
    908.   11.013  5.52E-06  4.55E-04  5.01E-06  4.13E-04  0.00E+00  0.00E+00  1.05E-05  8.68E-04  6.32E-03  0.44216
    910.   10.989  5.34E-06  4.43E-04  5.17E-06  4.28E-04  0.00E+00  0.00E+00  1.05E-05  8.71E-04  6.34E-03  0.45854
    912.   10.965  4.71E-06  3.92E-04  5.97E-06  4.97E-04  0.00E+00  0.00E+00  1.07E-05  8.89E-04  6.36E-03  0.53115
    914.   10.941  4.72E-06  3.95E-04  5.91E-06  4.94E-04  0.00E+00  0.00E+00  1.06E-05  8.89E-04  6.38E-03  0.52729
    916.   10.917  4.61E-06  3.87E-04  6.00E-06  5.04E-04  0.00E+00  0.00E+00  1.06E-05  8.91E-04  6.40E-03  0.53709
    918.   10.893  4.70E-06  3.96E-04  5.86E-06  4.93E-04  0.00E+00  0.00E+00  1.06E-05  8.89E-04  6.42E-03  0.52551
    920.   10.870  4.84E-06  4.10E-04  5.61E-06  4.75E-04  0.00E+00  0.00E+00  1.05E-05  8.85E-04  6.44E-03  0.50539
    922.   10.846  5.24E-06  4.45E-04  5.03E-06  4.27E-04  0.00E+00  0.00E+00  1.03E-05  8.73E-04  6.46E-03  0.45416
    924.   10.823  5.08E-06  4.34E-04  5.19E-06  4.43E-04  0.00E+00  0.00E+00  1.03E-05  8.77E-04  6.49E-03  0.46988
    926.   10.799  4.72E-06  4.05E-04  5.61E-06  4.81E-04  0.00E+00  0.00E+00  1.03E-05  8.86E-04  6.51E-03  0.50988
    928.   10.776  4.40E-06  3.79E-04  6.00E-06  5.16E-04  0.00E+00  0.00E+00  1.04E-05  8.96E-04  6.53E-03  0.54694
    930.   10.753  4.38E-06  3.79E-04  5.98E-06  5.17E-04  0.00E+00  0.00E+00  1.04E-05  8.96E-04  6.55E-03  0.54691
    932.   10.730  4.24E-06  3.68E-04  6.10E-06  5.30E-04  0.00E+00  0.00E+00  1.03E-05  8.98E-04  6.57E-03  0.55997
    934.   10.707  4.19E-06  3.66E-04  6.12E-06  5.34E-04  0.00E+00  0.00E+00  1.03E-05  8.99E-04  6.59E-03  0.56333
    936.   10.684  4.20E-06  3.68E-04  6.07E-06  5.32E-04  0.00E+00  0.00E+00  1.03E-05  9.00E-04  6.61E-03  0.56081
    938.   10.661  4.18E-06  3.68E-04  6.04E-06  5.31E-04  0.00E+00  0.00E+00  1.02E-05  8.99E-04  6.63E-03  0.55976
    940.   10.638  4.31E-06  3.81E-04  5.81E-06  5.13E-04  0.00E+00  0.00E+00  1.01E-05  8.94E-04  6.65E-03  0.54020
    942.   10.616  4.35E-06  3.86E-04  5.69E-06  5.05E-04  0.00E+00  0.00E+00  1.00E-05  8.90E-04  6.67E-03  0.53084
    944.   10.593  4.33E-06  3.86E-04  5.68E-06  5.06E-04  0.00E+00  0.00E+00  1.00E-05  8.92E-04  6.69E-03  0.53194
    946.   10.571  4.52E-06  4.05E-04  5.36E-06  4.80E-04  0.00E+00  0.00E+00  9.89E-06  8.85E-04  6.71E-03  0.50400
    948.   10.549  4.77E-06  4.29E-04  4.92E-06  4.42E-04  0.00E+00  0.00E+00  9.69E-06  8.71E-04  6.73E-03  0.46355
    950.   10.526  4.24E-06  3.83E-04  5.62E-06  5.07E-04  0.00E+00  0.00E+00  9.86E-06  8.90E-04  6.75E-03  0.53161
    952.   10.504  4.15E-06  3.76E-04  5.75E-06  5.21E-04  0.00E+00  0.00E+00  9.90E-06  8.97E-04  6.77E-03  0.54593
    954.   10.482  4.45E-06  4.05E-04  5.33E-06  4.85E-04  0.00E+00  0.00E+00  9.77E-06  8.89E-04  6.79E-03  0.50713
    956.   10.460  4.25E-06  3.89E-04  5.53E-06  5.06E-04  0.00E+00  0.00E+00  9.78E-06  8.94E-04  6.81E-03  0.52870
    958.   10.438  3.94E-06  3.62E-04  5.94E-06  5.45E-04  0.00E+00  0.00E+00  9.88E-06  9.06E-04  6.83E-03  0.56924
    960.   10.417  3.94E-06  3.63E-04  5.95E-06  5.49E-04  0.00E+00  0.00E+00  9.89E-06  9.11E-04  6.85E-03  0.57284
    962.   10.395  3.66E-06  3.38E-04  6.24E-06  5.78E-04  0.00E+00  0.00E+00  9.90E-06  9.16E-04  6.87E-03  0.60286
    964.   10.373  3.62E-06  3.37E-04  6.19E-06  5.75E-04  0.00E+00  0.00E+00  9.81E-06  9.12E-04  6.89E-03  0.59981
    966.   10.352  3.92E-06  3.66E-04  5.74E-06  5.35E-04  0.00E+00  0.00E+00  9.66E-06  9.01E-04  6.91E-03  0.55758
    968.   10.331  3.86E-06  3.62E-04  5.74E-06  5.38E-04  0.00E+00  0.00E+00  9.60E-06  8.99E-04  6.93E-03  0.55980
    970.   10.309  4.01E-06  3.77E-04  5.49E-06  5.17E-04  0.00E+00  0.00E+00  9.50E-06  8.94E-04  6.94E-03  0.53759
    972.   10.288  4.45E-06  4.20E-04  4.86E-06  4.59E-04  0.00E+00  0.00E+00  9.31E-06  8.80E-04  6.96E-03  0.47777
    974.   10.267  4.31E-06  4.09E-04  5.01E-06  4.75E-04  0.00E+00  0.00E+00  9.32E-06  8.84E-04  6.98E-03  0.49394
    976.   10.246  4.34E-06  4.13E-04  4.89E-06  4.66E-04  0.00E+00  0.00E+00  9.23E-06  8.79E-04  7.00E-03  0.48387
    978.   10.225  3.86E-06  3.69E-04  5.48E-06  5.24E-04  0.00E+00  0.00E+00  9.34E-06  8.94E-04  7.02E-03  0.54454
    980.   10.204  3.48E-06  3.34E-04  5.94E-06  5.70E-04  0.00E+00  0.00E+00  9.42E-06  9.04E-04  7.04E-03  0.59148
    982.   10.183  3.50E-06  3.37E-04  5.86E-06  5.65E-04  0.00E+00  0.00E+00  9.35E-06  9.02E-04  7.06E-03  0.58590
    984.   10.163  3.41E-06  3.30E-04  5.93E-06  5.75E-04  0.00E+00  0.00E+00  9.35E-06  9.05E-04  7.07E-03  0.59558
    986.   10.142  3.15E-06  3.06E-04  6.21E-06  6.03E-04  0.00E+00  0.00E+00  9.35E-06  9.09E-04  7.09E-03  0.62513
    988.   10.121  3.06E-06  2.99E-04  6.22E-06  6.07E-04  0.00E+00  0.00E+00  9.28E-06  9.06E-04  7.11E-03  0.62887
    990.   10.101  3.05E-06  2.99E-04  6.14E-06  6.02E-04  0.00E+00  0.00E+00  9.19E-06  9.01E-04  7.13E-03  0.62344
    992.   10.081  2.95E-06  2.90E-04  6.13E-06  6.03E-04  0.00E+00  0.00E+00  9.08E-06  8.94E-04  7.15E-03  0.62449
    994.   10.060  2.91E-06  2.88E-04  6.05E-06  5.98E-04  0.00E+00  0.00E+00  8.97E-06  8.86E-04  7.17E-03  0.61865
    996.   10.040  2.90E-06  2.87E-04  5.92E-06  5.88E-04  0.00E+00  0.00E+00  8.82E-06  8.75E-04  7.18E-03  0.60756
    998.   10.020  3.16E-06  3.15E-04  5.42E-06  5.40E-04  0.00E+00  0.00E+00  8.58E-06  8.55E-04  7.20E-03  0.55776
   1000.   10.000  3.36E-06  3.36E-04  5.02E-06  5.02E-04  0.00E+00  0.00E+00  8.38E-06  8.38E-04  7.22E-03  0.51843
  iv         1005
1                                             RADIANCE(WATTS/CM2-STER-XXX)
0  FREQ   WAVLEN    PATH THERMAL      SURFACE EMISSION    SURFACE REFLECTED     TOTAL RADIANCE   INTEGRAL    TOTAL
  (CM-1) (MICRN)    (CM-1)   (MICRN)    (CM-1)   (MICRN)    (CM-1)   (MICRN)    (CM-1)   (MICRN)    (CM-1)   TRANS

   1002.    9.980  3.08E-06  3.09E-04  5.14E-06  5.16E-04  0.00E+00  0.00E+00  8.22E-06  8.25E-04  7.23E-03  0.53335
   1004.    9.960  3.12E-06  3.14E-04  4.90E-06  4.94E-04  0.00E+00  0.00E+00  8.02E-06  8.08E-04  7.25E-03  0.51011
   1006.    9.940  2.96E-06  3.00E-04  4.83E-06  4.89E-04  0.00E+00  0.00E+00  7.80E-06  7.89E-04  7.27E-03  0.50507
   1008.    9.921  2.97E-06  3.02E-04  4.68E-06  4.75E-04  0.00E+00  0.00E+00  7.65E-06  7.77E-04  7.28E-03  0.49047
   1010.    9.901  3.37E-06  3.44E-04  3.95E-06  4.03E-04  0.00E+00  0.00E+00  7.32E-06  7.47E-04  7.30E-03  0.41546
   1012.    9.881  3.31E-06  3.39E-04  3.73E-06  3.82E-04  0.00E+00  0.00E+00  7.04E-06  7.21E-04  7.31E-03  0.39431
   1014.    9.862  3.27E-06  3.36E-04  3.55E-06  3.65E-04  0.00E+00  0.00E+00  6.82E-06  7.01E-04  7.32E-03  0.37637
   1016.    9.843  3.16E-06  3.27E-04  3.52E-06  3.63E-04  0.00E+00  0.00E+00  6.69E-06  6.90E-04  7.34E-03  0.37485
   1018.    9.823  3.17E-06  3.28E-04  3.22E-06  3.34E-04  0.00E+00  0.00E+00  6.39E-06  6.62E-04  7.35E-03  0.34440
   1020.    9.804  2.84E-06  2.96E-04  3.40E-06  3.54E-04  0.00E+00  0.00E+00  6.24E-06  6.49E-04  7.36E-03  0.36473
   1022.    9.785  2.69E-06  2.81E-04  3.40E-06  3.55E-04  0.00E+00  0.00E+00  6.09E-06  6.36E-04  7.37E-03  0.36600
   1024.    9.766  2.60E-06  2.73E-04  3.38E-06  3.54E-04  0.00E+00  0.00E+00  5.98E-06  6.27E-04  7.39E-03  0.36535
   1026.    9.747  2.66E-06  2.80E-04  3.29E-06  3.46E-04  0.00E+00  0.00E+00  5.95E-06  6.26E-04  7.40E-03  0.35641
   1028.    9.728  3.10E-06  3.28E-04  2.63E-06  2.78E-04  0.00E+00  0.00E+00  5.73E-06  6.06E-04  7.41E-03  0.28615
   1030.    9.709  3.12E-06  3.31E-04  2.50E-06  2.66E-04  0.00E+00  0.00E+00  5.62E-06  5.97E-04  7.42E-03  0.27375
   1032.    9.690  2.78E-06  2.96E-04  2.97E-06  3.16E-04  0.00E+00  0.00E+00  5.74E-06  6.12E-04  7.43E-03  0.32570
   1034.    9.671  2.57E-06  2.75E-04  3.11E-06  3.33E-04  0.00E+00  0.00E+00  5.68E-06  6.08E-04  7.44E-03  0.34293
   1036.    9.653  2.53E-06  2.71E-04  2.95E-06  3.17E-04  0.00E+00  0.00E+00  5.48E-06  5.89E-04  7.46E-03  0.32676
   1038.    9.634  2.66E-06  2.87E-04  2.54E-06  2.73E-04  0.00E+00  0.00E+00  5.20E-06  5.60E-04  7.47E-03  0.28157
   1040.    9.615  2.63E-06  2.85E-04  2.46E-06  2.66E-04  0.00E+00  0.00E+00  5.09E-06  5.51E-04  7.48E-03  0.27419
   1042.    9.597  2.58E-06  2.80E-04  3.66E-06  3.98E-04  0.00E+00  0.00E+00  6.24E-06  6.78E-04  7.49E-03  0.41007
   1044.    9.579  2.55E-06  2.78E-04  4.46E-06  4.86E-04  0.00E+00  0.00E+00  7.01E-06  7.64E-04  7.50E-03  0.50081
   1046.    9.560  2.43E-06  2.66E-04  3.67E-06  4.01E-04  0.00E+00  0.00E+00  6.10E-06  6.67E-04  7.51E-03  0.41340
   1048.    9.542  2.57E-06  2.83E-04  2.63E-06  2.89E-04  0.00E+00  0.00E+00  5.21E-06  5.72E-04  7.52E-03  0.29778
   1050.    9.524  2.76E-06  3.05E-04  2.05E-06  2.26E-04  0.00E+00  0.00E+00  4.81E-06  5.30E-04  7.53E-03  0.23262
   1052.    9.506  2.61E-06  2.88E-04  2.07E-06  2.29E-04  0.00E+00  0.00E+00  4.68E-06  5.17E-04  7.54E-03  0.23617
   1054.    9.488  2.50E-06  2.78E-04  2.09E-06  2.32E-04  0.00E+00  0.00E+00  4.59E-06  5.10E-04  7.55E-03  0.23918
   1056.    9.470  2.60E-06  2.90E-04  1.98E-06  2.21E-04  0.00E+00  0.00E+00  4.58E-06  5.11E-04  7.56E-03  0.22796
   1058.    9.452  2.64E-06  2.96E-04  2.28E-06  2.55E-04  0.00E+00  0.00E+00  4.92E-06  5.50E-04  7.57E-03  0.26285
   1060.    9.434  2.75E-06  3.09E-04  2.55E-06  2.86E-04  0.00E+00  0.00E+00  5.30E-06  5.95E-04  7.58E-03  0.29538
   1062.    9.416  2.71E-06  3.06E-04  3.00E-06  3.38E-04  0.00E+00  0.00E+00  5.71E-06  6.44E-04  7.59E-03  0.34894
   1064.    9.398  2.83E-06  3.20E-04  3.42E-06  3.87E-04  0.00E+00  0.00E+00  6.25E-06  7.07E-04  7.61E-03  0.39984
   1066.    9.381  3.35E-06  3.81E-04  3.25E-06  3.70E-04  0.00E+00  0.00E+00  6.61E-06  7.51E-04  7.62E-03  0.38196
   1068.    9.363  2.91E-06  3.32E-04  4.18E-06  4.77E-04  0.00E+00  0.00E+00  7.10E-06  8.09E-04  7.63E-03  0.49313
   1070.    9.346  2.43E-06  2.78E-04  5.08E-06  5.81E-04  0.00E+00  0.00E+00  7.50E-06  8.59E-04  7.65E-03  0.60060
   1072.    9.328  2.88E-06  3.31E-04  4.65E-06  5.34E-04  0.00E+00  0.00E+00  7.53E-06  8.65E-04  7.66E-03  0.55185
   1074.    9.311  3.55E-06  4.09E-04  3.73E-06  4.30E-04  0.00E+00  0.00E+00  7.27E-06  8.39E-04  7.68E-03  0.44446
   1076.    9.294  3.00E-06  3.47E-04  4.38E-06  5.07E-04  0.00E+00  0.00E+00  7.38E-06  8.54E-04  7.69E-03  0.52485
   1078.    9.276  2.45E-06  2.84E-04  5.13E-06  5.97E-04  0.00E+00  0.00E+00  7.58E-06  8.81E-04  7.71E-03  0.61755
   1080.    9.259  2.51E-06  2.93E-04  4.94E-06  5.77E-04  0.00E+00  0.00E+00  7.45E-06  8.69E-04  7.72E-03  0.59683
   1082.    9.242  2.45E-06  2.87E-04  5.01E-06  5.87E-04  0.00E+00  0.00E+00  7.46E-06  8.74E-04  7.74E-03  0.60779
   1084.    9.225  2.41E-06  2.83E-04  5.16E-06  6.06E-04  0.00E+00  0.00E+00  7.56E-06  8.89E-04  7.75E-03  0.62767
   1086.    9.208  2.44E-06  2.88E-04  5.06E-06  5.97E-04  0.00E+00  0.00E+00  7.50E-06  8.85E-04  7.77E-03  0.61887
   1088.    9.191  2.25E-06  2.66E-04  5.28E-06  6.25E-04  0.00E+00  0.00E+00  7.53E-06  8.92E-04  7.78E-03  0.64855
   1090.    9.174  2.72E-06  3.23E-04  4.67E-06  5.55E-04  0.00E+00  0.00E+00  7.39E-06  8.78E-04  7.80E-03  0.57561
   1092.    9.158  2.75E-06  3.28E-04  4.65E-06  5.54E-04  0.00E+00  0.00E+00  7.40E-06  8.82E-04  7.81E-03  0.57570
   1094.    9.141  1.94E-06  2.32E-04  5.66E-06  6.77E-04  0.00E+00  0.00E+00  7.60E-06  9.09E-04  7.83E-03  0.70331
   1096.    9.124  1.79E-06  2.15E-04  5.83E-06  7.01E-04  0.00E+00  0.00E+00  7.62E-06  9.15E-04  7.84E-03  0.72823
   1098.    9.107  2.21E-06  2.66E-04  5.27E-06  6.35E-04  0.00E+00  0.00E+00  7.48E-06  9.02E-04  7.86E-03  0.66042
   1100.    9.091  3.32E-06  4.02E-04  3.73E-06  4.51E-04  0.00E+00  0.00E+00  7.05E-06  8.53E-04  7.87E-03  0.46895
  iv         1105
1                                             RADIANCE(WATTS/CM2-STER-XXX)
0  FREQ   WAVLEN    PATH THERMAL      SURFACE EMISSION    SURFACE REFLECTED     TOTAL RADIANCE   INTEGRAL    TOTAL
  (CM-1) (MICRN)    (CM-1)   (MICRN)    (CM-1)   (MICRN)    (CM-1)   (MICRN)    (CM-1)   (MICRN)    (CM-1)   TRANS

   1102.    9.074  2.86E-06  3.48E-04  4.32E-06  5.24E-04  0.00E+00  0.00E+00  7.18E-06  8.72E-04  7.89E-03  0.54607
   1104.    9.058  2.11E-06  2.57E-04  5.34E-06  6.51E-04  0.00E+00  0.00E+00  7.45E-06  9.08E-04  7.90E-03  0.67834
   1106.    9.042  2.97E-06  3.63E-04  4.15E-06  5.07E-04  0.00E+00  0.00E+00  7.11E-06  8.70E-04  7.92E-03  0.52846
   1108.    9.025  2.76E-06  3.39E-04  4.36E-06  5.35E-04  0.00E+00  0.00E+00  7.12E-06  8.74E-04  7.93E-03  0.55807
   1110.    9.009  2.47E-06  3.04E-04  4.75E-06  5.85E-04  0.00E+00  0.00E+00  7.21E-06  8.88E-04  7.94E-03  0.60972
   1112.    8.993  2.93E-06  3.62E-04  3.99E-06  4.94E-04  0.00E+00  0.00E+00  6.92E-06  8.56E-04  7.96E-03  0.51553
   1114.    8.977  2.07E-06  2.57E-04  5.12E-06  6.35E-04  0.00E+00  0.00E+00  7.19E-06  8.93E-04  7.97E-03  0.66398
   1116.    8.961  1.85E-06  2.31E-04  5.42E-06  6.75E-04  0.00E+00  0.00E+00  7.27E-06  9.05E-04  7.99E-03  0.70530
   1118.    8.945  2.16E-06  2.70E-04  4.99E-06  6.23E-04  0.00E+00  0.00E+00  7.15E-06  8.93E-04  8.00E-03  0.65219
   1120.    8.929  2.90E-06  3.63E-04  3.86E-06  4.84E-04  0.00E+00  0.00E+00  6.75E-06  8.47E-04  8.02E-03  0.50639
   1122.    8.913  2.92E-06  3.67E-04  3.79E-06  4.77E-04  0.00E+00  0.00E+00  6.71E-06  8.45E-04  8.03E-03  0.50021
   1124.    8.897  1.90E-06  2.40E-04  5.18E-06  6.54E-04  0.00E+00  0.00E+00  7.07E-06  8.94E-04  8.04E-03  0.68569
   1126.    8.881  1.65E-06  2.09E-04  5.45E-06  6.91E-04  0.00E+00  0.00E+00  7.10E-06  9.00E-04  8.06E-03  0.72517
   1128.    8.865  1.61E-06  2.05E-04  5.48E-06  6.97E-04  0.00E+00  0.00E+00  7.09E-06  9.02E-04  8.07E-03  0.73187
   1130.    8.850  1.69E-06  2.16E-04  5.35E-06  6.84E-04  0.00E+00  0.00E+00  7.05E-06  9.00E-04  8.09E-03  0.71855
   1132.    8.834  1.91E-06  2.44E-04  5.09E-06  6.52E-04  0.00E+00  0.00E+00  7.00E-06  8.97E-04  8.10E-03  0.68581
   1134.    8.818  3.16E-06  4.06E-04  3.33E-06  4.29E-04  0.00E+00  0.00E+00  6.49E-06  8.35E-04  8.11E-03  0.45066
   1136.    8.803  4.32E-06  5.58E-04  1.36E-06  1.76E-04  0.00E+00  0.00E+00  5.68E-06  7.34E-04  8.12E-03  0.18501
   1138.    8.787  3.34E-06  4.33E-04  2.94E-06  3.81E-04  0.00E+00  0.00E+00  6.28E-06  8.14E-04  8.14E-03  0.40252
   1140.    8.772  2.07E-06  2.68E-04  4.83E-06  6.28E-04  0.00E+00  0.00E+00  6.90E-06  8.96E-04  8.15E-03  0.66253
   1142.    8.757  1.89E-06  2.46E-04  5.01E-06  6.54E-04  0.00E+00  0.00E+00  6.90E-06  8.99E-04  8.16E-03  0.69027
   1144.    8.741  1.67E-06  2.18E-04  5.24E-06  6.85E-04  0.00E+00  0.00E+00  6.90E-06  9.03E-04  8.18E-03  0.72457
   1146.    8.726  1.65E-06  2.16E-04  5.23E-06  6.87E-04  0.00E+00  0.00E+00  6.88E-06  9.04E-04  8.19E-03  0.72726
   1148.    8.711  2.49E-06  3.28E-04  4.02E-06  5.29E-04  0.00E+00  0.00E+00  6.51E-06  8.58E-04  8.20E-03  0.56016
   1150.    8.696  3.26E-06  4.31E-04  2.98E-06  3.94E-04  0.00E+00  0.00E+00  6.24E-06  8.25E-04  8.22E-03  0.41771
   1152.    8.681  3.29E-06  4.37E-04  2.89E-06  3.83E-04  0.00E+00  0.00E+00  6.18E-06  8.20E-04  8.23E-03  0.40639
   1154.    8.666  2.35E-06  3.13E-04  4.18E-06  5.57E-04  0.00E+00  0.00E+00  6.53E-06  8.69E-04  8.24E-03  0.59147
   1156.    8.651  1.60E-06  2.13E-04  5.14E-06  6.87E-04  0.00E+00  0.00E+00  6.74E-06  9.00E-04  8.26E-03  0.73026
   1158.    8.636  1.51E-06  2.03E-04  5.21E-06  6.99E-04  0.00E+00  0.00E+00  6.72E-06  9.02E-04  8.27E-03  0.74385
   1160.    8.621  1.56E-06  2.10E-04  5.12E-06  6.89E-04  0.00E+00  0.00E+00  6.68E-06  8.99E-04  8.28E-03  0.73413
   1162.    8.606  1.74E-06  2.34E-04  4.88E-06  6.59E-04  0.00E+00  0.00E+00  6.62E-06  8.94E-04  8.30E-03  0.70279
   1164.    8.591  2.82E-06  3.82E-04  3.27E-06  4.42E-04  0.00E+00  0.00E+00  6.09E-06  8.25E-04  8.31E-03  0.47169
   1166.    8.576  3.27E-06  4.44E-04  2.62E-06  3.56E-04  0.00E+00  0.00E+00  5.88E-06  8.00E-04  8.32E-03  0.38044
   1168.    8.562  2.12E-06  2.89E-04  4.31E-06  5.87E-04  0.00E+00  0.00E+00  6.42E-06  8.76E-04  8.33E-03  0.62860
   1170.    8.547  2.00E-06  2.74E-04  4.46E-06  6.10E-04  0.00E+00  0.00E+00  6.46E-06  8.84E-04  8.35E-03  0.65348
   1172.    8.532  2.82E-06  3.87E-04  3.31E-06  4.55E-04  0.00E+00  0.00E+00  6.13E-06  8.43E-04  8.36E-03  0.48742
   1174.    8.518  3.94E-06  5.43E-04  1.23E-06  1.70E-04  0.00E+00  0.00E+00  5.18E-06  7.13E-04  8.37E-03  0.18190
   1176.    8.503  3.47E-06  4.80E-04  2.02E-06  2.79E-04  0.00E+00  0.00E+00  5.49E-06  7.59E-04  8.38E-03  0.30059
   1178.    8.489  2.41E-06  3.35E-04  3.84E-06  5.33E-04  0.00E+00  0.00E+00  6.25E-06  8.68E-04  8.39E-03  0.57364
   1180.    8.475  2.15E-06  2.99E-04  4.11E-06  5.72E-04  0.00E+00  0.00E+00  6.26E-06  8.71E-04  8.40E-03  0.61609
   1182.    8.460  2.01E-06  2.81E-04  4.25E-06  5.94E-04  0.00E+00  0.00E+00  6.26E-06  8.75E-04  8.42E-03  0.64046
   1184.    8.446  2.38E-06  3.34E-04  3.80E-06  5.32E-04  0.00E+00  0.00E+00  6.18E-06  8.66E-04  8.43E-03  0.57404
   1186.    8.432  3.47E-06  4.87E-04  1.96E-06  2.75E-04  0.00E+00  0.00E+00  5.42E-06  7.63E-04  8.44E-03  0.29680
   1188.    8.418  3.71E-06  5.24E-04  1.52E-06  2.14E-04  0.00E+00  0.00E+00  5.23E-06  7.38E-04  8.45E-03  0.23185
   1190.    8.403  2.75E-06  3.89E-04  3.17E-06  4.49E-04  0.00E+00  0.00E+00  5.92E-06  8.38E-04  8.46E-03  0.48694
   1192.    8.389  2.19E-06  3.11E-04  3.87E-06  5.49E-04  0.00E+00  0.00E+00  6.06E-06  8.60E-04  8.47E-03  0.59588
   1194.    8.375  2.12E-06  3.02E-04  3.95E-06  5.63E-04  0.00E+00  0.00E+00  6.06E-06  8.64E-04  8.49E-03  0.61101
   1196.    8.361  2.57E-06  3.67E-04  3.22E-06  4.61E-04  0.00E+00  0.00E+00  5.79E-06  8.28E-04  8.50E-03  0.50111
   1198.    8.347  3.42E-06  4.91E-04  1.76E-06  2.53E-04  0.00E+00  0.00E+00  5.18E-06  7.44E-04  8.51E-03  0.27522
   1200.    8.333  2.85E-06  4.10E-04  2.75E-06  3.97E-04  0.00E+00  0.00E+00  5.60E-06  8.07E-04  8.52E-03  0.43306
  iv         1205
1                                             RADIANCE(WATTS/CM2-STER-XXX)
0  FREQ   WAVLEN    PATH THERMAL      SURFACE EMISSION    SURFACE REFLECTED     TOTAL RADIANCE   INTEGRAL    TOTAL
  (CM-1) (MICRN)    (CM-1)   (MICRN)    (CM-1)   (MICRN)    (CM-1)   (MICRN)    (CM-1)   (MICRN)    (CM-1)   TRANS

   1202.    8.319  1.84E-06  2.65E-04  4.17E-06  6.03E-04  0.00E+00  0.00E+00  6.01E-06  8.68E-04  8.53E-03  0.65813
   1204.    8.306  1.82E-06  2.64E-04  4.15E-06  6.01E-04  0.00E+00  0.00E+00  5.97E-06  8.65E-04  8.54E-03  0.65714
   1206.    8.292  2.32E-06  3.37E-04  3.48E-06  5.07E-04  0.00E+00  0.00E+00  5.80E-06  8.44E-04  8.55E-03  0.55472
   1208.    8.278  2.47E-06  3.61E-04  3.29E-06  4.80E-04  0.00E+00  0.00E+00  5.76E-06  8.41E-04  8.57E-03  0.52620
   1210.    8.264  3.14E-06  4.60E-04  1.94E-06  2.84E-04  0.00E+00  0.00E+00  5.08E-06  7.43E-04  8.58E-03  0.31075
   1212.    8.251  3.70E-06  5.43E-04  6.19E-07  9.10E-05  0.00E+00  0.00E+00  4.32E-06  6.34E-04  8.59E-03  0.09998
   1214.    8.237  3.47E-06  5.12E-04  1.54E-06  2.27E-04  0.00E+00  0.00E+00  5.01E-06  7.39E-04  8.60E-03  0.25003
   1216.    8.224  2.94E-06  4.35E-04  2.49E-06  3.69E-04  0.00E+00  0.00E+00  5.43E-06  8.03E-04  8.61E-03  0.40661
   1218.    8.210  3.36E-06  4.98E-04  1.58E-06  2.35E-04  0.00E+00  0.00E+00  4.94E-06  7.33E-04  8.62E-03  0.25868
   1220.    8.197  3.48E-06  5.18E-04  1.26E-06  1.88E-04  0.00E+00  0.00E+00  4.74E-06  7.06E-04  8.63E-03  0.20756
   1222.    8.183  3.28E-06  4.90E-04  1.76E-06  2.63E-04  0.00E+00  0.00E+00  5.04E-06  7.53E-04  8.64E-03  0.29052
   1224.    8.170  3.54E-06  5.30E-04  9.30E-07  1.39E-04  0.00E+00  0.00E+00  4.47E-06  6.69E-04  8.64E-03  0.15414
   1226.    8.157  3.45E-06  5.18E-04  8.56E-07  1.29E-04  0.00E+00  0.00E+00  4.30E-06  6.47E-04  8.65E-03  0.14324
   1228.    8.143  2.82E-06  4.25E-04  2.21E-06  3.34E-04  0.00E+00  0.00E+00  5.03E-06  7.58E-04  8.66E-03  0.37132
   1230.    8.130  2.15E-06  3.25E-04  3.06E-06  4.63E-04  0.00E+00  0.00E+00  5.21E-06  7.88E-04  8.67E-03  0.51623
   1232.    8.117  1.84E-06  2.79E-04  3.62E-06  5.50E-04  0.00E+00  0.00E+00  5.46E-06  8.29E-04  8.68E-03  0.61334
   1234.    8.104  1.92E-06  2.92E-04  3.45E-06  5.26E-04  0.00E+00  0.00E+00  5.37E-06  8.18E-04  8.70E-03  0.58699
   1236.    8.091  2.40E-06  3.67E-04  2.43E-06  3.71E-04  0.00E+00  0.00E+00  4.83E-06  7.38E-04  8.70E-03  0.41452
   1238.    8.078  2.95E-06  4.52E-04  1.61E-06  2.47E-04  0.00E+00  0.00E+00  4.56E-06  6.99E-04  8.71E-03  0.27656
   1240.    8.065  3.16E-06  4.86E-04  1.44E-06  2.21E-04  0.00E+00  0.00E+00  4.60E-06  7.08E-04  8.72E-03  0.24840
   1242.    8.052  3.14E-06  4.85E-04  1.08E-06  1.67E-04  0.00E+00  0.00E+00  4.23E-06  6.52E-04  8.73E-03  0.18725
   1244.    8.039  3.19E-06  4.94E-04  3.65E-07  5.65E-05  0.00E+00  0.00E+00  3.56E-06  5.51E-04  8.74E-03  0.06352
   1246.    8.026  2.95E-06  4.58E-04  9.82E-07  1.52E-04  0.00E+00  0.00E+00  3.93E-06  6.10E-04  8.75E-03  0.17215
   1248.    8.013  2.75E-06  4.29E-04  1.48E-06  2.30E-04  0.00E+00  0.00E+00  4.23E-06  6.59E-04  8.76E-03  0.25979
   1250.    8.000  2.80E-06  4.38E-04  1.59E-06  2.48E-04  0.00E+00  0.00E+00  4.39E-06  6.86E-04  8.76E-03  0.28049
   1252.    7.987  3.04E-06  4.77E-04  1.17E-06  1.83E-04  0.00E+00  0.00E+00  4.21E-06  6.60E-04  8.77E-03  0.20694
   1254.    7.974  2.96E-06  4.65E-04  9.97E-07  1.57E-04  0.00E+00  0.00E+00  3.95E-06  6.21E-04  8.78E-03  0.17796
   1256.    7.962  3.17E-06  5.00E-04  1.06E-06  1.68E-04  0.00E+00  0.00E+00  4.23E-06  6.67E-04  8.79E-03  0.19053
   1258.    7.949  3.34E-06  5.29E-04  4.52E-07  7.16E-05  0.00E+00  0.00E+00  3.80E-06  6.01E-04  8.80E-03  0.08127
   1260.    7.937  2.72E-06  4.31E-04  6.90E-08  1.10E-05  0.00E+00  0.00E+00  2.78E-06  4.42E-04  8.80E-03  0.01246
   1262.    7.924  2.87E-06  4.56E-04  2.00E-07  3.18E-05  0.00E+00  0.00E+00  3.06E-06  4.88E-04  8.81E-03  0.03642
   1264.    7.911  3.13E-06  5.00E-04  2.14E-07  3.42E-05  0.00E+00  0.00E+00  3.34E-06  5.34E-04  8.81E-03  0.03908
   1266.    7.899  2.88E-06  4.61E-04  3.30E-08  5.28E-06  0.00E+00  0.00E+00  2.91E-06  4.66E-04  8.82E-03  0.00603
   1268.    7.886  2.47E-06  3.98E-04  1.17E-09  1.89E-07  0.00E+00  0.00E+00  2.48E-06  3.98E-04  8.83E-03  0.00022
   1270.    7.874  2.29E-06  3.69E-04  3.93E-10  6.34E-08  0.00E+00  0.00E+00  2.29E-06  3.69E-04  8.83E-03  0.00007
   1272.    7.862  2.53E-06  4.09E-04  3.64E-08  5.89E-06  0.00E+00  0.00E+00  2.57E-06  4.15E-04  8.84E-03  0.00681
   1274.    7.849  3.03E-06  4.92E-04  3.92E-07  6.37E-05  0.00E+00  0.00E+00  3.43E-06  5.56E-04  8.84E-03  0.07368
   1276.    7.837  2.78E-06  4.53E-04  9.31E-07  1.52E-04  0.00E+00  0.00E+00  3.71E-06  6.05E-04  8.85E-03  0.17546
   1278.    7.825  2.88E-06  4.71E-04  1.09E-06  1.79E-04  0.00E+00  0.00E+00  3.98E-06  6.50E-04  8.86E-03  0.20700
   1280.    7.813  3.08E-06  5.04E-04  4.99E-07  8.18E-05  0.00E+00  0.00E+00  3.58E-06  5.86E-04  8.86E-03  0.09464
   1282.    7.800  2.76E-06  4.54E-04  2.10E-07  3.46E-05  0.00E+00  0.00E+00  2.97E-06  4.89E-04  8.87E-03  0.04021
   1284.    7.788  2.92E-06  4.82E-04  1.68E-07  2.77E-05  0.00E+00  0.00E+00  3.09E-06  5.09E-04  8.88E-03  0.03217
   1286.    7.776  2.94E-06  4.85E-04  6.51E-08  1.08E-05  0.00E+00  0.00E+00  3.00E-06  4.96E-04  8.88E-03  0.01253
   1288.    7.764  2.31E-06  3.83E-04  8.09E-09  1.34E-06  0.00E+00  0.00E+00  2.32E-06  3.85E-04  8.89E-03  0.00157
   1290.    7.752  2.82E-06  4.69E-04  3.92E-08  6.52E-06  0.00E+00  0.00E+00  2.86E-06  4.75E-04  8.89E-03  0.00766
   1292.    7.740  3.06E-06  5.11E-04  1.59E-07  2.65E-05  0.00E+00  0.00E+00  3.22E-06  5.37E-04  8.90E-03  0.03120
   1294.    7.728  2.71E-06  4.55E-04  2.12E-07  3.56E-05  0.00E+00  0.00E+00  2.93E-06  4.90E-04  8.91E-03  0.04177
   1296.    7.716  2.41E-06  4.04E-04  9.56E-08  1.61E-05  0.00E+00  0.00E+00  2.50E-06  4.20E-04  8.91E-03  0.01888
   1298.    7.704  2.40E-06  4.04E-04  2.66E-07  4.48E-05  0.00E+00  0.00E+00  2.66E-06  4.49E-04  8.92E-03  0.05293
   1300.    7.692  2.35E-06  3.98E-04  4.01E-07  6.77E-05  0.00E+00  0.00E+00  2.75E-06  4.65E-04  8.92E-03  0.08005
  iv         1305
1                                             RADIANCE(WATTS/CM2-STER-XXX)
0  FREQ   WAVLEN    PATH THERMAL      SURFACE EMISSION    SURFACE REFLECTED     TOTAL RADIANCE   INTEGRAL    TOTAL
  (CM-1) (MICRN)    (CM-1)   (MICRN)    (CM-1)   (MICRN)    (CM-1)   (MICRN)    (CM-1)   (MICRN)    (CM-1)   TRANS

   1302.    7.680  1.90E-06  3.22E-04  2.07E-07  3.50E-05  0.00E+00  0.00E+00  2.10E-06  3.57E-04  8.93E-03  0.04145
   1304.    7.669  1.31E-06  2.23E-04  5.63E-08  9.58E-06  0.00E+00  0.00E+00  1.37E-06  2.33E-04  8.93E-03  0.01134
   1306.    7.657  1.46E-06  2.49E-04  7.01E-09  1.20E-06  0.00E+00  0.00E+00  1.47E-06  2.50E-04  8.93E-03  0.00142
   1308.    7.645  2.37E-06  4.06E-04  3.78E-09  6.47E-07  0.00E+00  0.00E+00  2.37E-06  4.06E-04  8.94E-03  0.00077
   1310.    7.634  2.72E-06  4.66E-04  5.77E-09  9.91E-07  0.00E+00  0.00E+00  2.72E-06  4.67E-04  8.94E-03  0.00118
   1312.    7.622  2.18E-06  3.76E-04  2.17E-09  3.73E-07  0.00E+00  0.00E+00  2.18E-06  3.76E-04  8.95E-03  0.00044
   1314.    7.610  1.91E-06  3.29E-04  4.06E-15  7.02E-13  0.00E+00  0.00E+00  1.91E-06  3.29E-04  8.95E-03  0.00000
   1316.    7.599  1.92E-06  3.32E-04  8.84E-15  1.53E-12  0.00E+00  0.00E+00  1.92E-06  3.32E-04  8.95E-03  0.00000
   1318.    7.587  1.70E-06  2.95E-04  1.52E-13  2.64E-11  0.00E+00  0.00E+00  1.70E-06  2.95E-04  8.96E-03  0.00000
   1320.    7.576  1.77E-06  3.08E-04  4.86E-11  8.47E-09  0.00E+00  0.00E+00  1.77E-06  3.08E-04  8.96E-03  0.00001
   1322.    7.564  2.14E-06  3.74E-04  3.71E-10  6.49E-08  0.00E+00  0.00E+00  2.14E-06  3.74E-04  8.96E-03  0.00008
   1324.    7.553  2.67E-06  4.69E-04  1.22E-08  2.14E-06  0.00E+00  0.00E+00  2.69E-06  4.71E-04  8.97E-03  0.00260
   1326.    7.541  2.56E-06  4.51E-04  1.70E-08  2.99E-06  0.00E+00  0.00E+00  2.58E-06  4.54E-04  8.98E-03  0.00363
   1328.    7.530  2.34E-06  4.12E-04  4.55E-09  8.03E-07  0.00E+00  0.00E+00  2.34E-06  4.13E-04  8.98E-03  0.00097
   1330.    7.519  2.54E-06  4.50E-04  1.07E-08  1.90E-06  0.00E+00  0.00E+00  2.55E-06  4.52E-04  8.98E-03  0.00232
   1332.    7.508  2.20E-06  3.90E-04  1.10E-08  1.95E-06  0.00E+00  0.00E+00  2.21E-06  3.92E-04  8.99E-03  0.00238
   1334.    7.496  2.20E-06  3.92E-04  7.04E-10  1.25E-07  0.00E+00  0.00E+00  2.20E-06  3.92E-04  8.99E-03  0.00015
   1336.    7.485  1.89E-06  3.37E-04  1.11E-10  1.99E-08  0.00E+00  0.00E+00  1.89E-06  3.37E-04  9.00E-03  0.00002
   1338.    7.474  1.21E-06  2.17E-04  4.91E-20  8.79E-18  0.00E+00  0.00E+00  1.21E-06  2.17E-04  9.00E-03  0.00000
   1340.    7.463  1.20E-06  2.15E-04  1.46E-17  2.63E-15  0.00E+00  0.00E+00  1.20E-06  2.15E-04  9.00E-03  0.00000
   1342.    7.452  1.50E-06  2.70E-04  1.67E-11  3.00E-09  0.00E+00  0.00E+00  1.50E-06  2.70E-04  9.01E-03  0.00000
   1344.    7.440  2.12E-06  3.83E-04  4.96E-10  8.97E-08  0.00E+00  0.00E+00  2.12E-06  3.83E-04  9.01E-03  0.00011
   1346.    7.429  2.15E-06  3.89E-04  7.22E-10  1.31E-07  0.00E+00  0.00E+00  2.15E-06  3.89E-04  9.01E-03  0.00016
   1348.    7.418  1.73E-06  3.14E-04  1.59E-10  2.89E-08  0.00E+00  0.00E+00  1.73E-06  3.14E-04  9.02E-03  0.00004
   1350.    7.407  1.80E-06  3.28E-04  7.93E-11  1.45E-08  0.00E+00  0.00E+00  1.80E-06  3.28E-04  9.02E-03  0.00002
   1352.    7.396  1.95E-06  3.56E-04  1.31E-10  2.40E-08  0.00E+00  0.00E+00  1.95E-06  3.56E-04  9.02E-03  0.00003
   1354.    7.386  1.75E-06  3.21E-04  3.77E-11  6.91E-09  0.00E+00  0.00E+00  1.75E-06  3.21E-04  9.03E-03  0.00001
   1356.    7.375  1.71E-06  3.14E-04  2.27E-12  4.18E-10  0.00E+00  0.00E+00  1.71E-06  3.14E-04  9.03E-03  0.00000
   1358.    7.364  1.85E-06  3.41E-04  1.99E-12  3.67E-10  0.00E+00  0.00E+00  1.85E-06  3.41E-04  9.04E-03  0.00000
   1360.    7.353  1.59E-06  2.94E-04  3.53E-14  6.53E-12  0.00E+00  0.00E+00  1.59E-06  2.94E-04  9.04E-03  0.00000
   1362.    7.342  1.18E-06  2.18E-04  2.69E-21  4.98E-19  0.00E+00  0.00E+00  1.18E-06  2.18E-04  9.04E-03  0.00000
   1364.    7.331  1.35E-06  2.52E-04  2.72E-16  5.07E-14  0.00E+00  0.00E+00  1.35E-06  2.52E-04  9.04E-03  0.00000
   1366.    7.321  1.82E-06  3.40E-04  1.60E-15  2.99E-13  0.00E+00  0.00E+00  1.82E-06  3.40E-04  9.05E-03  0.00000
   1368.    7.310  1.59E-06  2.98E-04  1.27E-15  2.38E-13  0.00E+00  0.00E+00  1.59E-06  2.98E-04  9.05E-03  0.00000
   1370.    7.299  1.53E-06  2.86E-04  2.13E-16  4.00E-14  0.00E+00  0.00E+00  1.53E-06  2.86E-04  9.05E-03  0.00000
   1372.    7.289  1.43E-06  2.69E-04  7.86E-20  1.48E-17  0.00E+00  0.00E+00  1.43E-06  2.69E-04  9.06E-03  0.00000
   1374.    7.278  1.03E-06  1.95E-04  8.55E-28  1.61E-25  0.00E+00  0.00E+00  1.03E-06  1.95E-04  9.06E-03  0.00000
   1376.    7.267  1.22E-06  2.31E-04  3.25E-22  6.15E-20  0.00E+00  0.00E+00  1.22E-06  2.31E-04  9.06E-03  0.00000
   1378.    7.257  1.48E-06  2.81E-04  8.68E-19  1.65E-16  0.00E+00  0.00E+00  1.48E-06  2.81E-04  9.06E-03  0.00000
   1380.    7.246  1.63E-06  3.10E-04  3.01E-15  5.74E-13  0.00E+00  0.00E+00  1.63E-06  3.10E-04  9.07E-03  0.00000
   1382.    7.236  1.82E-06  3.47E-04  4.62E-15  8.83E-13  0.00E+00  0.00E+00  1.82E-06  3.47E-04  9.07E-03  0.00000
   1384.    7.225  1.73E-06  3.31E-04  9.57E-16  1.83E-13  0.00E+00  0.00E+00  1.73E-06  3.31E-04  9.07E-03  0.00000
   1386.    7.215  1.26E-06  2.42E-04  5.63E-18  1.08E-15  0.00E+00  0.00E+00  1.26E-06  2.42E-04  9.08E-03  0.00000
   1388.    7.205  1.06E-06  2.05E-04  5.86E-23  1.13E-20  0.00E+00  0.00E+00  1.06E-06  2.05E-04  9.08E-03  0.00000
   1390.    7.194  1.36E-06  2.63E-04  1.95E-23  3.78E-21  0.00E+00  0.00E+00  1.36E-06  2.63E-04  9.08E-03  0.00000
   1392.    7.184  1.32E-06  2.56E-04  2.96E-27  5.73E-25  0.00E+00  0.00E+00  1.32E-06  2.56E-04  9.08E-03  0.00000
   1394.    7.174  9.46E-07  1.84E-04  6.62E-28  1.29E-25  0.00E+00  0.00E+00  9.46E-07  1.84E-04  9.09E-03  0.00000
   1396.    7.163  9.29E-07  1.81E-04  2.21E-28  4.30E-26  0.00E+00  0.00E+00  9.29E-07  1.81E-04  9.09E-03  0.00000
   1398.    7.153  9.39E-07  1.84E-04  1.43E-23  2.79E-21  0.00E+00  0.00E+00  9.39E-07  1.84E-04  9.09E-03  0.00000
   1400.    7.143  1.03E-06  2.02E-04  1.43E-23  2.80E-21  0.00E+00  0.00E+00  1.03E-06  2.02E-04  9.09E-03  0.00000
  iv         1405
1                                             RADIANCE(WATTS/CM2-STER-XXX)
0  FREQ   WAVLEN    PATH THERMAL      SURFACE EMISSION    SURFACE REFLECTED     TOTAL RADIANCE   INTEGRAL    TOTAL
  (CM-1) (MICRN)    (CM-1)   (MICRN)    (CM-1)   (MICRN)    (CM-1)   (MICRN)    (CM-1)   (MICRN)    (CM-1)   TRANS

   1402.    7.133  1.34E-06  2.64E-04  2.52E-27  4.96E-25  0.00E+00  0.00E+00  1.34E-06  2.64E-04  9.09E-03  0.00000
   1404.    7.123  1.14E-06  2.25E-04  2.23E-18  4.39E-16  0.00E+00  0.00E+00  1.14E-06  2.25E-04  9.10E-03  0.00000
   1406.    7.112  1.28E-06  2.53E-04  2.28E-18  4.51E-16  0.00E+00  0.00E+00  1.28E-06  2.53E-04  9.10E-03  0.00000
   1408.    7.102  1.56E-06  3.09E-04  1.55E-19  3.08E-17  0.00E+00  0.00E+00  1.56E-06  3.09E-04  9.10E-03  0.00000
   1410.    7.092  1.39E-06  2.75E-04  5.31E-20  1.06E-17  0.00E+00  0.00E+00  1.39E-06  2.75E-04  9.11E-03  0.00000
   1412.    7.082  1.32E-06  2.63E-04  9.66E-22  1.93E-19  0.00E+00  0.00E+00  1.32E-06  2.63E-04  9.11E-03  0.00000
   1414.    7.072  1.36E-06  2.72E-04  4.82E-22  9.64E-20  0.00E+00  0.00E+00  1.36E-06  2.72E-04  9.11E-03  0.00000
   1416.    7.062  1.06E-06  2.13E-04  9.65E-25  1.94E-22  0.00E+00  0.00E+00  1.06E-06  2.13E-04  9.11E-03  0.00000
   1418.    7.052  7.47E-07  1.50E-04  3.46E-41  6.96E-39  0.00E+00  0.00E+00  7.47E-07  1.50E-04  9.11E-03  0.00000
   1420.    7.042  7.24E-07  1.46E-04  0.00E+00  0.00E+00  0.00E+00  0.00E+00  7.24E-07  1.46E-04  9.12E-03  0.00000
   1422.    7.032  9.34E-07  1.89E-04  2.44E-31  4.93E-29  0.00E+00  0.00E+00  9.34E-07  1.89E-04  9.12E-03  0.00000
   1424.    7.022  9.21E-07  1.87E-04  7.32E-31  1.48E-28  0.00E+00  0.00E+00  9.21E-07  1.87E-04  9.12E-03  0.00000
   1426.    7.013  1.14E-06  2.32E-04  3.02E-31  6.14E-29  0.00E+00  0.00E+00  1.14E-06  2.32E-04  9.12E-03  0.00000
   1428.    7.003  1.05E-06  2.14E-04  3.09E-26  6.30E-24  0.00E+00  0.00E+00  1.05E-06  2.14E-04  9.12E-03  0.00000
   1430.    6.993  8.67E-07  1.77E-04  9.28E-26  1.90E-23  0.00E+00  0.00E+00  8.67E-07  1.77E-04  9.13E-03  0.00000
   1432.    6.983  9.73E-07  2.00E-04  3.09E-26  6.34E-24  0.00E+00  0.00E+00  9.73E-07  2.00E-04  9.13E-03  0.00000
   1434.    6.974  9.11E-07  1.87E-04  3.64E-40  7.48E-38  0.00E+00  0.00E+00  9.11E-07  1.87E-04  9.13E-03  0.00000
   1436.    6.964  6.71E-07  1.38E-04  0.00E+00  0.00E+00  0.00E+00  0.00E+00  6.71E-07  1.38E-04  9.13E-03  0.00000
   1438.    6.954  8.01E-07  1.66E-04  2.13E-37  4.41E-35  0.00E+00  0.00E+00  8.01E-07  1.66E-04  9.13E-03  0.00000
   1440.    6.944  1.15E-06  2.38E-04  1.57E-28  3.26E-26  0.00E+00  0.00E+00  1.15E-06  2.38E-04  9.13E-03  0.00000
   1442.    6.935  1.27E-06  2.63E-04  5.93E-27  1.23E-24  0.00E+00  0.00E+00  1.27E-06  2.63E-04  9.14E-03  0.00000
   1444.    6.925  1.22E-06  2.55E-04  7.29E-27  1.52E-24  0.00E+00  0.00E+00  1.22E-06  2.55E-04  9.14E-03  0.00000
   1446.    6.916  9.43E-07  1.97E-04  9.14E-28  1.91E-25  0.00E+00  0.00E+00  9.43E-07  1.97E-04  9.14E-03  0.00000
   1448.    6.906  7.99E-07  1.68E-04  2.28E-28  4.78E-26  0.00E+00  0.00E+00  7.99E-07  1.68E-04  9.14E-03  0.00000
   1450.    6.897  9.51E-07  2.00E-04  7.60E-29  1.60E-26  0.00E+00  0.00E+00  9.51E-07  2.00E-04  9.14E-03  0.00000
   1452.    6.887  8.89E-07  1.88E-04  2.80E-43  5.91E-41  0.00E+00  0.00E+00  8.89E-07  1.88E-04  9.15E-03  0.00000
   1454.    6.878  7.45E-07  1.57E-04  0.00E+00  0.00E+00  0.00E+00  0.00E+00  7.45E-07  1.57E-04  9.15E-03  0.00000
   1456.    6.868  5.02E-07  1.06E-04  0.00E+00  0.00E+00  0.00E+00  0.00E+00  5.02E-07  1.06E-04  9.15E-03  0.00000
   1458.    6.859  4.52E-07  9.62E-05  0.00E+00  0.00E+00  0.00E+00  0.00E+00  4.52E-07  9.62E-05  9.15E-03  0.00000
   1460.    6.849  6.92E-07  1.48E-04  0.00E+00  0.00E+00  0.00E+00  0.00E+00  6.92E-07  1.48E-04  9.15E-03  0.00000
   1462.    6.840  8.35E-07  1.79E-04  0.00E+00  0.00E+00  0.00E+00  0.00E+00  8.35E-07  1.79E-04  9.15E-03  0.00000
   1464.    6.831  6.44E-07  1.38E-04  1.20E-36  2.58E-34  0.00E+00  0.00E+00  6.44E-07  1.38E-04  9.15E-03  0.00000
   1466.    6.821  6.80E-07  1.46E-04  1.20E-36  2.59E-34  0.00E+00  0.00E+00  6.80E-07  1.46E-04  9.16E-03  0.00000
   1468.    6.812  8.61E-07  1.86E-04  0.00E+00  0.00E+00  0.00E+00  0.00E+00  8.61E-07  1.86E-04  9.16E-03  0.00000
   1470.    6.803  7.57E-07  1.64E-04  0.00E+00  0.00E+00  0.00E+00  0.00E+00  7.57E-07  1.64E-04  9.16E-03  0.00000
   1472.    6.793  5.06E-07  1.10E-04  0.00E+00  0.00E+00  0.00E+00  0.00E+00  5.06E-07  1.10E-04  9.16E-03  0.00000
   1474.    6.784  4.84E-07  1.05E-04  0.00E+00  0.00E+00  0.00E+00  0.00E+00  4.84E-07  1.05E-04  9.16E-03  0.00000
   1476.    6.775  5.86E-07  1.28E-04  0.00E+00  0.00E+00  0.00E+00  0.00E+00  5.86E-07  1.28E-04  9.16E-03  0.00000
   1478.    6.766  8.10E-07  1.77E-04  0.00E+00  0.00E+00  0.00E+00  0.00E+00  8.10E-07  1.77E-04  9.16E-03  0.00000
   1480.    6.757  8.44E-07  1.85E-04  1.57E-43  3.44E-41  0.00E+00  0.00E+00  8.44E-07  1.85E-04  9.17E-03  0.00000
   1482.    6.748  8.06E-07  1.77E-04  1.57E-43  3.45E-41  0.00E+00  0.00E+00  8.06E-07  1.77E-04  9.17E-03  0.00000
   1484.    6.739  8.56E-07  1.88E-04  0.00E+00  0.00E+00  0.00E+00  0.00E+00  8.56E-07  1.88E-04  9.17E-03  0.00000
   1486.    6.729  6.57E-07  1.45E-04  0.00E+00  0.00E+00  0.00E+00  0.00E+00  6.57E-07  1.45E-04  9.17E-03  0.00000
   1488.    6.720  5.02E-07  1.11E-04  0.00E+00  0.00E+00  0.00E+00  0.00E+00  5.02E-07  1.11E-04  9.17E-03  0.00000
   1490.    6.711  4.79E-07  1.06E-04  0.00E+00  0.00E+00  0.00E+00  0.00E+00  4.79E-07  1.06E-04  9.17E-03  0.00000
   1492.    6.702  6.27E-07  1.40E-04  0.00E+00  0.00E+00  0.00E+00  0.00E+00  6.27E-07  1.40E-04  9.17E-03  0.00000
   1494.    6.693  6.73E-07  1.50E-04  0.00E+00  0.00E+00  0.00E+00  0.00E+00  6.73E-07  1.50E-04  9.17E-03  0.00000
   1496.    6.684  4.87E-07  1.09E-04  0.00E+00  0.00E+00  0.00E+00  0.00E+00  4.87E-07  1.09E-04  9.18E-03  0.00000
   1498.    6.676  4.39E-07  9.85E-05  0.00E+00  0.00E+00  0.00E+00  0.00E+00  4.39E-07  9.85E-05  9.18E-03  0.00000
   1500.    6.667  5.22E-07  1.18E-04  0.00E+00  0.00E+00  0.00E+00  0.00E+00  5.22E-07  1.18E-04  9.18E-03  0.00000
  iv         1505
1                                             RADIANCE(WATTS/CM2-STER-XXX)
0  FREQ   WAVLEN    PATH THERMAL      SURFACE EMISSION    SURFACE REFLECTED     TOTAL RADIANCE   INTEGRAL    TOTAL
  (CM-1) (MICRN)    (CM-1)   (MICRN)    (CM-1)   (MICRN)    (CM-1)   (MICRN)    (CM-1)   (MICRN)    (CM-1)   TRANS

   1502.    6.658  5.98E-07  1.35E-04  0.00E+00  0.00E+00  0.00E+00  0.00E+00  5.98E-07  1.35E-04  9.18E-03  0.00000
   1504.    6.649  5.12E-07  1.16E-04  0.00E+00  0.00E+00  0.00E+00  0.00E+00  5.12E-07  1.16E-04  9.18E-03  0.00000
   1506.    6.640  3.30E-07  7.48E-05  0.00E+00  0.00E+00  0.00E+00  0.00E+00  3.30E-07  7.48E-05  9.18E-03  0.00000
   1508.    6.631  3.31E-07  7.52E-05  0.00E+00  0.00E+00  0.00E+00  0.00E+00  3.31E-07  7.52E-05  9.18E-03  0.00000
   1510.    6.623  4.19E-07  9.56E-05  0.00E+00  0.00E+00  0.00E+00  0.00E+00  4.19E-07  9.56E-05  9.18E-03  0.00000
   1512.    6.614  4.88E-07  1.12E-04  0.00E+00  0.00E+00  0.00E+00  0.00E+00  4.88E-07  1.12E-04  9.18E-03  0.00000
   1514.    6.605  5.20E-07  1.19E-04  0.00E+00  0.00E+00  0.00E+00  0.00E+00  5.20E-07  1.19E-04  9.18E-03  0.00000
   1516.    6.596  4.18E-07  9.61E-05  0.00E+00  0.00E+00  0.00E+00  0.00E+00  4.18E-07  9.61E-05  9.18E-03  0.00000
   1518.    6.588  4.00E-07  9.22E-05  0.00E+00  0.00E+00  0.00E+00  0.00E+00  4.00E-07  9.22E-05  9.19E-03  0.00000
   1520.    6.579  3.66E-07  8.47E-05  0.00E+00  0.00E+00  0.00E+00  0.00E+00  3.66E-07  8.47E-05  9.19E-03  0.00000
   1522.    6.570  3.25E-07  7.53E-05  0.00E+00  0.00E+00  0.00E+00  0.00E+00  3.25E-07  7.53E-05  9.19E-03  0.00000
   1524.    6.562  3.76E-07  8.74E-05  0.00E+00  0.00E+00  0.00E+00  0.00E+00  3.76E-07  8.74E-05  9.19E-03  0.00000
   1526.    6.553  4.18E-07  9.74E-05  0.00E+00  0.00E+00  0.00E+00  0.00E+00  4.18E-07  9.74E-05  9.19E-03  0.00000
   1528.    6.545  4.64E-07  1.08E-04  0.00E+00  0.00E+00  0.00E+00  0.00E+00  4.64E-07  1.08E-04  9.19E-03  0.00000
   1530.    6.536  5.21E-07  1.22E-04  0.00E+00  0.00E+00  0.00E+00  0.00E+00  5.21E-07  1.22E-04  9.19E-03  0.00000
   1532.    6.527  4.37E-07  1.02E-04  0.00E+00  0.00E+00  0.00E+00  0.00E+00  4.37E-07  1.02E-04  9.19E-03  0.00000
   1534.    6.519  3.69E-07  8.68E-05  0.00E+00  0.00E+00  0.00E+00  0.00E+00  3.69E-07  8.68E-05  9.19E-03  0.00000
   1536.    6.510  4.48E-07  1.06E-04  0.00E+00  0.00E+00  0.00E+00  0.00E+00  4.48E-07  1.06E-04  9.19E-03  0.00000
   1538.    6.502  3.40E-07  8.04E-05  0.00E+00  0.00E+00  0.00E+00  0.00E+00  3.40E-07  8.04E-05  9.19E-03  0.00000
   1540.    6.494  2.43E-07  5.77E-05  0.00E+00  0.00E+00  0.00E+00  0.00E+00  2.43E-07  5.77E-05  9.19E-03  0.00000
   1542.    6.485  2.76E-07  6.57E-05  0.00E+00  0.00E+00  0.00E+00  0.00E+00  2.76E-07  6.57E-05  9.19E-03  0.00000
   1544.    6.477  3.43E-07  8.17E-05  0.00E+00  0.00E+00  0.00E+00  0.00E+00  3.43E-07  8.17E-05  9.20E-03  0.00000
   1546.    6.468  4.33E-07  1.03E-04  0.00E+00  0.00E+00  0.00E+00  0.00E+00  4.33E-07  1.03E-04  9.20E-03  0.00000
   1548.    6.460  5.08E-07  1.22E-04  0.00E+00  0.00E+00  0.00E+00  0.00E+00  5.08E-07  1.22E-04  9.20E-03  0.00000
   1550.    6.452  4.53E-07  1.09E-04  0.00E+00  0.00E+00  0.00E+00  0.00E+00  4.53E-07  1.09E-04  9.20E-03  0.00000
   1552.    6.443  4.43E-07  1.07E-04  0.00E+00  0.00E+00  0.00E+00  0.00E+00  4.43E-07  1.07E-04  9.20E-03  0.00000
   1554.    6.435  3.68E-07  8.90E-05  0.00E+00  0.00E+00  0.00E+00  0.00E+00  3.68E-07  8.90E-05  9.20E-03  0.00000
   1556.    6.427  3.21E-07  7.76E-05  0.00E+00  0.00E+00  0.00E+00  0.00E+00  3.21E-07  7.76E-05  9.20E-03  0.00000
   1558.    6.418  2.35E-07  5.71E-05  0.00E+00  0.00E+00  0.00E+00  0.00E+00  2.35E-07  5.71E-05  9.20E-03  0.00000
   1560.    6.410  2.42E-07  5.89E-05  0.00E+00  0.00E+00  0.00E+00  0.00E+00  2.42E-07  5.89E-05  9.20E-03  0.00000
   1562.    6.402  3.81E-07  9.29E-05  0.00E+00  0.00E+00  0.00E+00  0.00E+00  3.81E-07  9.29E-05  9.20E-03  0.00000
   1564.    6.394  4.08E-07  9.98E-05  0.00E+00  0.00E+00  0.00E+00  0.00E+00  4.08E-07  9.98E-05  9.20E-03  0.00000
   1566.    6.386  4.35E-07  1.07E-04  0.00E+00  0.00E+00  0.00E+00  0.00E+00  4.35E-07  1.07E-04  9.20E-03  0.00000
   1568.    6.378  3.97E-07  9.75E-05  0.00E+00  0.00E+00  0.00E+00  0.00E+00  3.97E-07  9.75E-05  9.20E-03  0.00000
   1570.    6.369  3.35E-07  8.26E-05  0.00E+00  0.00E+00  0.00E+00  0.00E+00  3.35E-07  8.26E-05  9.21E-03  0.00000
   1572.    6.361  4.48E-07  1.11E-04  0.00E+00  0.00E+00  0.00E+00  0.00E+00  4.48E-07  1.11E-04  9.21E-03  0.00000
   1574.    6.353  4.13E-07  1.02E-04  2.10E-44  5.21E-42  0.00E+00  0.00E+00  4.13E-07  1.02E-04  9.21E-03  0.00000
   1576.    6.345  2.83E-07  7.03E-05  6.17E-44  1.53E-41  0.00E+00  0.00E+00  2.83E-07  7.03E-05  9.21E-03  0.00000
   1578.    6.337  3.68E-07  9.16E-05  2.10E-44  5.23E-42  0.00E+00  0.00E+00  3.68E-07  9.16E-05  9.21E-03  0.00000
   1580.    6.329  5.41E-07  1.35E-04  0.00E+00  0.00E+00  0.00E+00  0.00E+00  5.41E-07  1.35E-04  9.21E-03  0.00000
   1582.    6.321  6.13E-07  1.54E-04  1.07E-39  2.68E-37  0.00E+00  0.00E+00  6.13E-07  1.54E-04  9.21E-03  0.00000
   1584.    6.313  6.67E-07  1.67E-04  6.53E-35  1.64E-32  0.00E+00  0.00E+00  6.67E-07  1.67E-04  9.21E-03  0.00000
   1586.    6.305  6.98E-07  1.76E-04  2.77E-33  6.96E-31  0.00E+00  0.00E+00  6.98E-07  1.76E-04  9.21E-03  0.00000
   1588.    6.297  6.73E-07  1.70E-04  6.74E-33  1.70E-30  0.00E+00  0.00E+00  6.73E-07  1.70E-04  9.21E-03  0.00000
   1590.    6.289  5.91E-07  1.49E-04  2.06E-33  5.20E-31  0.00E+00  0.00E+00  5.91E-07  1.49E-04  9.22E-03  0.00000
   1592.    6.281  5.61E-07  1.42E-04  3.25E-33  8.23E-31  0.00E+00  0.00E+00  5.61E-07  1.42E-04  9.22E-03  0.00000
   1594.    6.274  5.12E-07  1.30E-04  9.72E-33  2.47E-30  0.00E+00  0.00E+00  5.12E-07  1.30E-04  9.22E-03  0.00000
   1596.    6.266  5.36E-07  1.37E-04  2.94E-31  7.48E-29  0.00E+00  0.00E+00  5.36E-07  1.37E-04  9.22E-03  0.00000
   1598.    6.258  6.59E-07  1.68E-04  3.05E-30  7.79E-28  0.00E+00  0.00E+00  6.59E-07  1.68E-04  9.22E-03  0.00000
   1600.    6.250  6.24E-07  1.60E-04  2.48E-30  6.34E-28  0.00E+00  0.00E+00  6.24E-07  1.60E-04  9.22E-03  0.00000
  iv         1605
1                                             RADIANCE(WATTS/CM2-STER-XXX)
0  FREQ   WAVLEN    PATH THERMAL      SURFACE EMISSION    SURFACE REFLECTED     TOTAL RADIANCE   INTEGRAL    TOTAL
  (CM-1) (MICRN)    (CM-1)   (MICRN)    (CM-1)   (MICRN)    (CM-1)   (MICRN)    (CM-1)   (MICRN)    (CM-1)   TRANS

   1602.    6.242  5.07E-07  1.30E-04  3.50E-33  8.99E-31  0.00E+00  0.00E+00  5.07E-07  1.30E-04  9.22E-03  0.00000
   1604.    6.234  5.46E-07  1.40E-04  3.19E-35  8.20E-33  0.00E+00  0.00E+00  5.46E-07  1.40E-04  9.22E-03  0.00000
   1606.    6.227  5.45E-07  1.41E-04  3.06E-35  7.89E-33  0.00E+00  0.00E+00  5.45E-07  1.41E-04  9.22E-03  0.00000
   1608.    6.219  4.39E-07  1.13E-04  4.51E-41  1.17E-38  0.00E+00  0.00E+00  4.39E-07  1.13E-04  9.23E-03  0.00000
   1610.    6.211  4.61E-07  1.20E-04  8.84E-42  2.29E-39  0.00E+00  0.00E+00  4.61E-07  1.20E-04  9.23E-03  0.00000
   1612.    6.203  5.15E-07  1.34E-04  0.00E+00  0.00E+00  0.00E+00  0.00E+00  5.15E-07  1.34E-04  9.23E-03  0.00000
   1614.    6.196  4.27E-07  1.11E-04  0.00E+00  0.00E+00  0.00E+00  0.00E+00  4.27E-07  1.11E-04  9.23E-03  0.00000
   1616.    6.188  2.70E-07  7.04E-05  1.97E-35  5.15E-33  0.00E+00  0.00E+00  2.70E-07  7.04E-05  9.23E-03  0.00000
   1618.    6.180  2.94E-07  7.71E-05  1.97E-35  5.16E-33  0.00E+00  0.00E+00  2.94E-07  7.71E-05  9.23E-03  0.00000
   1620.    6.173  3.99E-07  1.05E-04  0.00E+00  0.00E+00  0.00E+00  0.00E+00  3.99E-07  1.05E-04  9.23E-03  0.00000
   1622.    6.165  3.39E-07  8.92E-05  0.00E+00  0.00E+00  0.00E+00  0.00E+00  3.39E-07  8.92E-05  9.23E-03  0.00000
   1624.    6.158  2.84E-07  7.50E-05  0.00E+00  0.00E+00  0.00E+00  0.00E+00  2.84E-07  7.50E-05  9.23E-03  0.00000
   1626.    6.150  3.29E-07  8.71E-05  0.00E+00  0.00E+00  0.00E+00  0.00E+00  3.29E-07  8.71E-05  9.23E-03  0.00000
   1628.    6.143  3.25E-07  8.61E-05  0.00E+00  0.00E+00  0.00E+00  0.00E+00  3.25E-07  8.61E-05  9.23E-03  0.00000
   1630.    6.135  4.20E-07  1.11E-04  0.00E+00  0.00E+00  0.00E+00  0.00E+00  4.20E-07  1.11E-04  9.23E-03  0.00000
   1632.    6.127  4.16E-07  1.11E-04  0.00E+00  0.00E+00  0.00E+00  0.00E+00  4.16E-07  1.11E-04  9.23E-03  0.00000
   1634.    6.120  2.75E-07  7.35E-05  0.00E+00  0.00E+00  0.00E+00  0.00E+00  2.75E-07  7.35E-05  9.24E-03  0.00000
   1636.    6.112  1.99E-07  5.33E-05  0.00E+00  0.00E+00  0.00E+00  0.00E+00  1.99E-07  5.33E-05  9.24E-03  0.00000
   1638.    6.105  2.64E-07  7.08E-05  0.00E+00  0.00E+00  0.00E+00  0.00E+00  2.64E-07  7.08E-05  9.24E-03  0.00000
   1640.    6.098  3.47E-07  9.34E-05  0.00E+00  0.00E+00  0.00E+00  0.00E+00  3.47E-07  9.34E-05  9.24E-03  0.00000
   1642.    6.090  3.74E-07  1.01E-04  0.00E+00  0.00E+00  0.00E+00  0.00E+00  3.74E-07  1.01E-04  9.24E-03  0.00000
   1644.    6.083  3.12E-07  8.42E-05  0.00E+00  0.00E+00  0.00E+00  0.00E+00  3.12E-07  8.42E-05  9.24E-03  0.00000
   1646.    6.075  2.02E-07  5.48E-05  0.00E+00  0.00E+00  0.00E+00  0.00E+00  2.02E-07  5.48E-05  9.24E-03  0.00000
   1648.    6.068  2.14E-07  5.82E-05  0.00E+00  0.00E+00  0.00E+00  0.00E+00  2.14E-07  5.82E-05  9.24E-03  0.00000
   1650.    6.061  2.49E-07  6.78E-05  0.00E+00  0.00E+00  0.00E+00  0.00E+00  2.49E-07  6.78E-05  9.24E-03  0.00000
   1652.    6.053  1.74E-07  4.76E-05  0.00E+00  0.00E+00  0.00E+00  0.00E+00  1.74E-07  4.76E-05  9.24E-03  0.00000
   1654.    6.046  1.65E-07  4.50E-05  0.00E+00  0.00E+00  0.00E+00  0.00E+00  1.65E-07  4.50E-05  9.24E-03  0.00000
   1656.    6.039  2.68E-07  7.34E-05  0.00E+00  0.00E+00  0.00E+00  0.00E+00  2.68E-07  7.34E-05  9.24E-03  0.00000
   1658.    6.031  3.66E-07  1.01E-04  0.00E+00  0.00E+00  0.00E+00  0.00E+00  3.66E-07  1.01E-04  9.24E-03  0.00000
   1660.    6.024  3.60E-07  9.92E-05  0.00E+00  0.00E+00  0.00E+00  0.00E+00  3.60E-07  9.92E-05  9.24E-03  0.00000
   1662.    6.017  2.64E-07  7.28E-05  0.00E+00  0.00E+00  0.00E+00  0.00E+00  2.64E-07  7.28E-05  9.24E-03  0.00000
   1664.    6.010  2.97E-07  8.22E-05  0.00E+00  0.00E+00  0.00E+00  0.00E+00  2.97E-07  8.22E-05  9.24E-03  0.00000
   1666.    6.002  3.54E-07  9.83E-05  0.00E+00  0.00E+00  0.00E+00  0.00E+00  3.54E-07  9.83E-05  9.24E-03  0.00000
   1668.    5.995  2.52E-07  7.01E-05  0.00E+00  0.00E+00  0.00E+00  0.00E+00  2.52E-07  7.01E-05  9.24E-03  0.00000
   1670.    5.988  1.92E-07  5.37E-05  0.00E+00  0.00E+00  0.00E+00  0.00E+00  1.92E-07  5.37E-05  9.24E-03  0.00000
   1672.    5.981  2.37E-07  6.63E-05  0.00E+00  0.00E+00  0.00E+00  0.00E+00  2.37E-07  6.63E-05  9.25E-03  0.00000
   1674.    5.974  2.43E-07  6.80E-05  0.00E+00  0.00E+00  0.00E+00  0.00E+00  2.43E-07  6.80E-05  9.25E-03  0.00000
   1676.    5.967  2.25E-07  6.32E-05  0.00E+00  0.00E+00  0.00E+00  0.00E+00  2.25E-07  6.32E-05  9.25E-03  0.00000
   1678.    5.959  2.85E-07  8.04E-05  0.00E+00  0.00E+00  0.00E+00  0.00E+00  2.85E-07  8.04E-05  9.25E-03  0.00000
   1680.    5.952  2.66E-07  7.52E-05  0.00E+00  0.00E+00  0.00E+00  0.00E+00  2.66E-07  7.52E-05  9.25E-03  0.00000
   1682.    5.945  2.25E-07  6.35E-05  0.00E+00  0.00E+00  0.00E+00  0.00E+00  2.25E-07  6.35E-05  9.25E-03  0.00000
   1684.    5.938  1.58E-07  4.49E-05  0.00E+00  0.00E+00  0.00E+00  0.00E+00  1.58E-07  4.49E-05  9.25E-03  0.00000
   1686.    5.931  2.02E-07  5.75E-05  0.00E+00  0.00E+00  0.00E+00  0.00E+00  2.02E-07  5.75E-05  9.25E-03  0.00000
   1688.    5.924  2.50E-07  7.12E-05  0.00E+00  0.00E+00  0.00E+00  0.00E+00  2.50E-07  7.12E-05  9.25E-03  0.00000
   1690.    5.917  2.60E-07  7.44E-05  0.00E+00  0.00E+00  0.00E+00  0.00E+00  2.60E-07  7.44E-05  9.25E-03  0.00000
   1692.    5.910  2.88E-07  8.26E-05  0.00E+00  0.00E+00  0.00E+00  0.00E+00  2.88E-07  8.26E-05  9.25E-03  0.00000
   1694.    5.903  2.29E-07  6.57E-05  0.00E+00  0.00E+00  0.00E+00  0.00E+00  2.29E-07  6.57E-05  9.25E-03  0.00000
   1696.    5.896  1.65E-07  4.75E-05  0.00E+00  0.00E+00  0.00E+00  0.00E+00  1.65E-07  4.75E-05  9.25E-03  0.00000
   1698.    5.889  1.70E-07  4.91E-05  0.00E+00  0.00E+00  0.00E+00  0.00E+00  1.70E-07  4.91E-05  9.25E-03  0.00000
   1700.    5.882  1.39E-07  4.01E-05  0.00E+00  0.00E+00  0.00E+00  0.00E+00  1.39E-07  4.01E-05  9.25E-03  0.00000
  iv         1705
1                                             RADIANCE(WATTS/CM2-STER-XXX)
0  FREQ   WAVLEN    PATH THERMAL      SURFACE EMISSION    SURFACE REFLECTED     TOTAL RADIANCE   INTEGRAL    TOTAL
  (CM-1) (MICRN)    (CM-1)   (MICRN)    (CM-1)   (MICRN)    (CM-1)   (MICRN)    (CM-1)   (MICRN)    (CM-1)   TRANS

   1702.    5.875  1.81E-07  5.25E-05  0.00E+00  0.00E+00  0.00E+00  0.00E+00  1.81E-07  5.25E-05  9.25E-03  0.00000
   1704.    5.869  1.97E-07  5.73E-05  0.00E+00  0.00E+00  0.00E+00  0.00E+00  1.97E-07  5.73E-05  9.25E-03  0.00000
   1706.    5.862  1.90E-07  5.52E-05  0.00E+00  0.00E+00  0.00E+00  0.00E+00  1.90E-07  5.52E-05  9.25E-03  0.00000
   1708.    5.855  2.58E-07  7.52E-05  0.00E+00  0.00E+00  0.00E+00  0.00E+00  2.58E-07  7.52E-05  9.25E-03  0.00000
   1710.    5.848  2.83E-07  8.28E-05  0.00E+00  0.00E+00  0.00E+00  0.00E+00  2.83E-07  8.28E-05  9.25E-03  0.00000
   1712.    5.841  2.83E-07  8.30E-05  0.00E+00  0.00E+00  0.00E+00  0.00E+00  2.83E-07  8.30E-05  9.25E-03  0.00000
   1714.    5.834  2.20E-07  6.46E-05  0.00E+00  0.00E+00  0.00E+00  0.00E+00  2.20E-07  6.46E-05  9.25E-03  0.00000
   1716.    5.828  1.65E-07  4.86E-05  0.00E+00  0.00E+00  0.00E+00  0.00E+00  1.65E-07  4.86E-05  9.26E-03  0.00000
   1718.    5.821  1.58E-07  4.67E-05  0.00E+00  0.00E+00  0.00E+00  0.00E+00  1.58E-07  4.67E-05  9.26E-03  0.00000
   1720.    5.814  2.42E-07  7.16E-05  0.00E+00  0.00E+00  0.00E+00  0.00E+00  2.42E-07  7.16E-05  9.26E-03  0.00000
   1722.    5.807  2.97E-07  8.80E-05  0.00E+00  0.00E+00  0.00E+00  0.00E+00  2.97E-07  8.80E-05  9.26E-03  0.00000
   1724.    5.800  3.22E-07  9.58E-05  0.00E+00  0.00E+00  0.00E+00  0.00E+00  3.22E-07  9.58E-05  9.26E-03  0.00000
   1726.    5.794  3.54E-07  1.05E-04  0.00E+00  0.00E+00  0.00E+00  0.00E+00  3.54E-07  1.05E-04  9.26E-03  0.00000
   1728.    5.787  3.21E-07  9.57E-05  0.00E+00  0.00E+00  0.00E+00  0.00E+00  3.21E-07  9.57E-05  9.26E-03  0.00000
   1730.    5.780  2.41E-07  7.20E-05  0.00E+00  0.00E+00  0.00E+00  0.00E+00  2.41E-07  7.20E-05  9.26E-03  0.00000
   1732.    5.774  1.89E-07  5.66E-05  0.00E+00  0.00E+00  0.00E+00  0.00E+00  1.89E-07  5.66E-05  9.26E-03  0.00000
   1734.    5.767  1.45E-07  4.35E-05  0.00E+00  0.00E+00  0.00E+00  0.00E+00  1.45E-07  4.35E-05  9.26E-03  0.00000
   1736.    5.760  1.96E-07  5.90E-05  0.00E+00  0.00E+00  0.00E+00  0.00E+00  1.96E-07  5.90E-05  9.26E-03  0.00000
   1738.    5.754  2.06E-07  6.21E-05  0.00E+00  0.00E+00  0.00E+00  0.00E+00  2.06E-07  6.21E-05  9.26E-03  0.00000
   1740.    5.747  1.84E-07  5.57E-05  0.00E+00  0.00E+00  0.00E+00  0.00E+00  1.84E-07  5.57E-05  9.26E-03  0.00000
   1742.    5.741  2.24E-07  6.79E-05  0.00E+00  0.00E+00  0.00E+00  0.00E+00  2.24E-07  6.79E-05  9.26E-03  0.00000
   1744.    5.734  2.13E-07  6.48E-05  0.00E+00  0.00E+00  0.00E+00  0.00E+00  2.13E-07  6.48E-05  9.26E-03  0.00000
   1746.    5.727  2.10E-07  6.40E-05  0.00E+00  0.00E+00  0.00E+00  0.00E+00  2.10E-07  6.40E-05  9.26E-03  0.00000
   1748.    5.721  1.81E-07  5.52E-05  0.00E+00  0.00E+00  0.00E+00  0.00E+00  1.81E-07  5.52E-05  9.26E-03  0.00000
   1750.    5.714  1.79E-07  5.47E-05  0.00E+00  0.00E+00  0.00E+00  0.00E+00  1.79E-07  5.47E-05  9.26E-03  0.00000
   1752.    5.708  2.27E-07  6.96E-05  0.00E+00  0.00E+00  0.00E+00  0.00E+00  2.27E-07  6.96E-05  9.26E-03  0.00000
   1754.    5.701  3.01E-07  9.27E-05  0.00E+00  0.00E+00  0.00E+00  0.00E+00  3.01E-07  9.27E-05  9.26E-03  0.00000
   1756.    5.695  2.62E-07  8.08E-05  3.54E-35  1.09E-32  0.00E+00  0.00E+00  2.62E-07  8.08E-05  9.26E-03  0.00000
   1758.    5.688  2.55E-07  7.88E-05  3.54E-35  1.09E-32  0.00E+00  0.00E+00  2.55E-07  7.88E-05  9.27E-03  0.00000
   1760.    5.682  2.50E-07  7.75E-05  7.52E-32  2.33E-29  0.00E+00  0.00E+00  2.50E-07  7.75E-05  9.27E-03  0.00000
   1762.    5.675  2.07E-07  6.42E-05  2.25E-31  7.00E-29  0.00E+00  0.00E+00  2.07E-07  6.42E-05  9.27E-03  0.00000
   1764.    5.669  2.85E-07  8.88E-05  7.52E-32  2.34E-29  0.00E+00  0.00E+00  2.85E-07  8.88E-05  9.27E-03  0.00000
   1766.    5.663  3.10E-07  9.66E-05  5.07E-41  1.58E-38  0.00E+00  0.00E+00  3.10E-07  9.66E-05  9.27E-03  0.00000
   1768.    5.656  2.31E-07  7.21E-05  1.51E-41  4.73E-39  0.00E+00  0.00E+00  2.31E-07  7.21E-05  9.27E-03  0.00000
   1770.    5.650  1.83E-07  5.74E-05  0.00E+00  0.00E+00  0.00E+00  0.00E+00  1.83E-07  5.74E-05  9.27E-03  0.00000
   1772.    5.643  1.36E-07  4.27E-05  0.00E+00  0.00E+00  0.00E+00  0.00E+00  1.36E-07  4.27E-05  9.27E-03  0.00000
   1774.    5.637  1.73E-07  5.44E-05  2.80E-45  8.81E-43  0.00E+00  0.00E+00  1.73E-07  5.44E-05  9.27E-03  0.00000
   1776.    5.631  2.40E-07  7.56E-05  9.11E-41  2.87E-38  0.00E+00  0.00E+00  2.40E-07  7.56E-05  9.27E-03  0.00000
   1778.    5.624  2.72E-07  8.61E-05  2.73E-40  8.64E-38  0.00E+00  0.00E+00  2.72E-07  8.61E-05  9.27E-03  0.00000
   1780.    5.618  2.21E-07  7.01E-05  4.94E-36  1.57E-33  0.00E+00  0.00E+00  2.21E-07  7.01E-05  9.27E-03  0.00000
   1782.    5.612  2.48E-07  7.87E-05  6.46E-36  2.05E-33  0.00E+00  0.00E+00  2.48E-07  7.87E-05  9.27E-03  0.00000
   1784.    5.605  2.72E-07  8.66E-05  2.92E-30  9.30E-28  0.00E+00  0.00E+00  2.72E-07  8.66E-05  9.27E-03  0.00000
   1786.    5.599  3.16E-07  1.01E-04  3.38E-27  1.08E-24  0.00E+00  0.00E+00  3.16E-07  1.01E-04  9.27E-03  0.00000
   1788.    5.593  3.32E-07  1.06E-04  3.38E-27  1.08E-24  0.00E+00  0.00E+00  3.32E-07  1.06E-04  9.27E-03  0.00000
   1790.    5.587  2.31E-07  7.39E-05  3.43E-31  1.10E-28  0.00E+00  0.00E+00  2.31E-07  7.39E-05  9.27E-03  0.00000
   1792.    5.580  1.51E-07  4.84E-05  9.93E-28  3.19E-25  0.00E+00  0.00E+00  1.51E-07  4.84E-05  9.27E-03  0.00000
   1794.    5.574  1.76E-07  5.66E-05  9.93E-28  3.20E-25  0.00E+00  0.00E+00  1.76E-07  5.66E-05  9.27E-03  0.00000
   1796.    5.568  2.20E-07  7.08E-05  4.82E-41  1.56E-38  0.00E+00  0.00E+00  2.20E-07  7.08E-05  9.27E-03  0.00000
   1798.    5.562  2.36E-07  7.62E-05  3.86E-27  1.25E-24  0.00E+00  0.00E+00  2.36E-07  7.62E-05  9.27E-03  0.00000
   1800.    5.556  1.86E-07  6.03E-05  1.16E-26  3.75E-24  0.00E+00  0.00E+00  1.86E-07  6.03E-05  9.27E-03  0.00000
  iv         1805
1                                             RADIANCE(WATTS/CM2-STER-XXX)
0  FREQ   WAVLEN    PATH THERMAL      SURFACE EMISSION    SURFACE REFLECTED     TOTAL RADIANCE   INTEGRAL    TOTAL
  (CM-1) (MICRN)    (CM-1)   (MICRN)    (CM-1)   (MICRN)    (CM-1)   (MICRN)    (CM-1)   (MICRN)    (CM-1)   TRANS

   1802.    5.549  2.30E-07  7.48E-05  1.67E-24  5.42E-22  0.00E+00  0.00E+00  2.30E-07  7.48E-05  9.28E-03  0.00000
   1804.    5.543  3.23E-07  1.05E-04  2.59E-22  8.42E-20  0.00E+00  0.00E+00  3.23E-07  1.05E-04  9.28E-03  0.00000
   1806.    5.537  3.40E-07  1.11E-04  4.22E-22  1.38E-19  0.00E+00  0.00E+00  3.40E-07  1.11E-04  9.28E-03  0.00000
   1808.    5.531  3.01E-07  9.83E-05  4.97E-22  1.62E-19  0.00E+00  0.00E+00  3.01E-07  9.83E-05  9.28E-03  0.00000
   1810.    5.525  2.29E-07  7.51E-05  3.27E-21  1.07E-18  0.00E+00  0.00E+00  2.29E-07  7.51E-05  9.28E-03  0.00000
   1812.    5.519  2.52E-07  8.29E-05  8.21E-19  2.69E-16  0.00E+00  0.00E+00  2.52E-07  8.29E-05  9.28E-03  0.00000
   1814.    5.513  3.90E-07  1.28E-04  1.14E-16  3.76E-14  0.00E+00  0.00E+00  3.90E-07  1.28E-04  9.28E-03  0.00000
   1816.    5.507  3.97E-07  1.31E-04  1.69E-16  5.58E-14  0.00E+00  0.00E+00  3.97E-07  1.31E-04  9.28E-03  0.00000
   1818.    5.501  4.06E-07  1.34E-04  2.19E-15  7.23E-13  0.00E+00  0.00E+00  4.06E-07  1.34E-04  9.28E-03  0.00000
   1820.    5.495  4.22E-07  1.40E-04  2.51E-15  8.30E-13  0.00E+00  0.00E+00  4.22E-07  1.40E-04  9.28E-03  0.00000
   1822.    5.488  3.31E-07  1.10E-04  1.75E-16  5.80E-14  0.00E+00  0.00E+00  3.31E-07  1.10E-04  9.28E-03  0.00000
   1824.    5.482  2.26E-07  7.52E-05  2.23E-21  7.42E-19  0.00E+00  0.00E+00  2.26E-07  7.52E-05  9.28E-03  0.00000
   1826.    5.476  1.99E-07  6.65E-05  2.23E-21  7.43E-19  0.00E+00  0.00E+00  1.99E-07  6.65E-05  9.28E-03  0.00000
   1828.    5.470  2.01E-07  6.70E-05  9.39E-44  3.14E-41  0.00E+00  0.00E+00  2.01E-07  6.70E-05  9.28E-03  0.00000
   1830.    5.464  1.49E-07  5.01E-05  1.60E-43  5.35E-41  0.00E+00  0.00E+00  1.49E-07  5.01E-05  9.28E-03  0.00000
   1832.    5.459  2.37E-07  7.95E-05  1.07E-22  3.59E-20  0.00E+00  0.00E+00  2.37E-07  7.95E-05  9.28E-03  0.00000
   1834.    5.453  3.15E-07  1.06E-04  2.03E-21  6.82E-19  0.00E+00  0.00E+00  3.15E-07  1.06E-04  9.28E-03  0.00000
   1836.    5.447  2.77E-07  9.35E-05  4.13E-19  1.39E-16  0.00E+00  0.00E+00  2.77E-07  9.35E-05  9.29E-03  0.00000
   1838.    5.441  2.75E-07  9.28E-05  4.16E-19  1.41E-16  0.00E+00  0.00E+00  2.75E-07  9.28E-05  9.29E-03  0.00000
   1840.    5.435  3.22E-07  1.09E-04  1.19E-20  4.03E-18  0.00E+00  0.00E+00  3.22E-07  1.09E-04  9.29E-03  0.00000
   1842.    5.429  2.32E-07  7.86E-05  3.94E-21  1.34E-18  0.00E+00  0.00E+00  2.32E-07  7.86E-05  9.29E-03  0.00000
   1844.    5.423  1.34E-07  4.56E-05  1.46E-21  4.98E-19  0.00E+00  0.00E+00  1.34E-07  4.56E-05  9.29E-03  0.00000
   1846.    5.417  1.65E-07  5.64E-05  5.53E-22  1.88E-19  0.00E+00  0.00E+00  1.65E-07  5.64E-05  9.29E-03  0.00000
   1848.    5.411  2.39E-07  8.17E-05  1.69E-17  5.77E-15  0.00E+00  0.00E+00  2.39E-07  8.17E-05  9.29E-03  0.00000
   1850.    5.405  3.55E-07  1.21E-04  1.93E-14  6.60E-12  0.00E+00  0.00E+00  3.55E-07  1.21E-04  9.29E-03  0.00000
   1852.    5.400  4.05E-07  1.39E-04  6.17E-13  2.11E-10  0.00E+00  0.00E+00  4.05E-07  1.39E-04  9.29E-03  0.00000
   1854.    5.394  4.38E-07  1.50E-04  6.68E-12  2.29E-09  0.00E+00  0.00E+00  4.38E-07  1.50E-04  9.29E-03  0.00001
   1856.    5.388  4.35E-07  1.50E-04  7.67E-12  2.64E-09  0.00E+00  0.00E+00  4.35E-07  1.50E-04  9.29E-03  0.00001
   1858.    5.382  3.61E-07  1.24E-04  1.50E-12  5.18E-10  0.00E+00  0.00E+00  3.61E-07  1.24E-04  9.29E-03  0.00000
   1860.    5.376  3.33E-07  1.15E-04  2.87E-14  9.92E-12  0.00E+00  0.00E+00  3.33E-07  1.15E-04  9.29E-03  0.00000
   1862.    5.371  3.68E-07  1.28E-04  6.95E-14  2.41E-11  0.00E+00  0.00E+00  3.68E-07  1.28E-04  9.29E-03  0.00000
   1864.    5.365  3.32E-07  1.15E-04  3.96E-14  1.38E-11  0.00E+00  0.00E+00  3.32E-07  1.15E-04  9.29E-03  0.00000
   1866.    5.359  2.06E-07  7.17E-05  4.39E-17  1.53E-14  0.00E+00  0.00E+00  2.06E-07  7.17E-05  9.29E-03  0.00000
   1868.    5.353  1.23E-07  4.28E-05  1.15E-25  4.00E-23  0.00E+00  0.00E+00  1.23E-07  4.28E-05  9.29E-03  0.00000
   1870.    5.348  1.61E-07  5.64E-05  1.37E-20  4.81E-18  0.00E+00  0.00E+00  1.61E-07  5.64E-05  9.30E-03  0.00000
   1872.    5.342  3.11E-07  1.09E-04  5.39E-13  1.89E-10  0.00E+00  0.00E+00  3.11E-07  1.09E-04  9.30E-03  0.00000
   1874.    5.336  4.29E-07  1.51E-04  2.14E-11  7.53E-09  0.00E+00  0.00E+00  4.29E-07  1.51E-04  9.30E-03  0.00002
   1876.    5.330  4.53E-07  1.60E-04  1.16E-10  4.09E-08  0.00E+00  0.00E+00  4.54E-07  1.60E-04  9.30E-03  0.00012
   1878.    5.325  4.41E-07  1.55E-04  2.33E-10  8.23E-08  0.00E+00  0.00E+00  4.41E-07  1.56E-04  9.30E-03  0.00025
   1880.    5.319  4.49E-07  1.59E-04  4.82E-10  1.70E-07  0.00E+00  0.00E+00  4.50E-07  1.59E-04  9.30E-03  0.00052
   1882.    5.313  4.66E-07  1.65E-04  6.52E-10  2.31E-07  0.00E+00  0.00E+00  4.67E-07  1.65E-04  9.30E-03  0.00070
   1884.    5.308  3.47E-07  1.23E-04  1.51E-10  5.36E-08  0.00E+00  0.00E+00  3.47E-07  1.23E-04  9.30E-03  0.00016
   1886.    5.302  3.20E-07  1.14E-04  4.25E-14  1.51E-11  0.00E+00  0.00E+00  3.20E-07  1.14E-04  9.30E-03  0.00000
   1888.    5.297  2.78E-07  9.92E-05  7.56E-13  2.69E-10  0.00E+00  0.00E+00  2.78E-07  9.92E-05  9.30E-03  0.00000
   1890.    5.291  1.98E-07  7.09E-05  2.17E-12  7.77E-10  0.00E+00  0.00E+00  1.98E-07  7.09E-05  9.30E-03  0.00000
   1892.    5.285  2.90E-07  1.04E-04  7.30E-13  2.61E-10  0.00E+00  0.00E+00  2.90E-07  1.04E-04  9.30E-03  0.00000
   1894.    5.280  2.64E-07  9.48E-05  1.14E-14  4.10E-12  0.00E+00  0.00E+00  2.64E-07  9.48E-05  9.30E-03  0.00000
   1896.    5.274  2.64E-07  9.50E-05  1.29E-11  4.63E-09  0.00E+00  0.00E+00  2.64E-07  9.51E-05  9.30E-03  0.00001
   1898.    5.269  4.04E-07  1.45E-04  7.85E-10  2.83E-07  0.00E+00  0.00E+00  4.04E-07  1.46E-04  9.30E-03  0.00090
   1900.    5.263  4.61E-07  1.66E-04  1.95E-09  7.04E-07  0.00E+00  0.00E+00  4.62E-07  1.67E-04  9.31E-03  0.00223
  iv         1905
1                                             RADIANCE(WATTS/CM2-STER-XXX)
0  FREQ   WAVLEN    PATH THERMAL      SURFACE EMISSION    SURFACE REFLECTED     TOTAL RADIANCE   INTEGRAL    TOTAL
  (CM-1) (MICRN)    (CM-1)   (MICRN)    (CM-1)   (MICRN)    (CM-1)   (MICRN)    (CM-1)   (MICRN)    (CM-1)   TRANS

   1902.    5.258  4.00E-07  1.45E-04  8.30E-10  3.00E-07  0.00E+00  0.00E+00  4.00E-07  1.45E-04  9.31E-03  0.00095
   1904.    5.252  3.26E-07  1.18E-04  7.85E-11  2.85E-08  0.00E+00  0.00E+00  3.26E-07  1.18E-04  9.31E-03  0.00009
   1906.    5.247  3.01E-07  1.10E-04  7.11E-12  2.58E-09  0.00E+00  0.00E+00  3.01E-07  1.10E-04  9.31E-03  0.00001
   1908.    5.241  2.09E-07  7.60E-05  2.18E-12  7.94E-10  0.00E+00  0.00E+00  2.09E-07  7.60E-05  9.31E-03  0.00000
   1910.    5.236  2.12E-07  7.73E-05  2.36E-12  8.61E-10  0.00E+00  0.00E+00  2.12E-07  7.73E-05  9.31E-03  0.00000
   1912.    5.230  3.26E-07  1.19E-04  2.11E-11  7.70E-09  0.00E+00  0.00E+00  3.26E-07  1.19E-04  9.31E-03  0.00003
   1914.    5.225  3.48E-07  1.28E-04  2.50E-11  9.17E-09  0.00E+00  0.00E+00  3.48E-07  1.28E-04  9.31E-03  0.00003
   1916.    5.219  2.68E-07  9.83E-05  3.70E-12  1.36E-09  0.00E+00  0.00E+00  2.68E-07  9.83E-05  9.31E-03  0.00000
   1918.    5.214  1.59E-07  5.87E-05  2.29E-15  8.43E-13  0.00E+00  0.00E+00  1.59E-07  5.87E-05  9.31E-03  0.00000
   1920.    5.208  1.92E-07  7.07E-05  6.71E-16  2.47E-13  0.00E+00  0.00E+00  1.92E-07  7.07E-05  9.31E-03  0.00000
   1922.    5.203  1.79E-07  6.60E-05  2.98E-21  1.10E-18  0.00E+00  0.00E+00  1.79E-07  6.60E-05  9.31E-03  0.00000
   1924.    5.198  2.12E-07  7.83E-05  1.11E-11  4.09E-09  0.00E+00  0.00E+00  2.12E-07  7.83E-05  9.31E-03  0.00001
   1926.    5.192  3.55E-07  1.32E-04  5.25E-10  1.95E-07  0.00E+00  0.00E+00  3.56E-07  1.32E-04  9.31E-03  0.00066
   1928.    5.187  4.34E-07  1.61E-04  5.66E-09  2.10E-06  0.00E+00  0.00E+00  4.40E-07  1.63E-04  9.31E-03  0.00711
   1930.    5.181  4.58E-07  1.71E-04  1.19E-08  4.42E-06  0.00E+00  0.00E+00  4.70E-07  1.75E-04  9.31E-03  0.01496
   1932.    5.176  3.48E-07  1.30E-04  5.35E-09  2.00E-06  0.00E+00  0.00E+00  3.54E-07  1.32E-04  9.32E-03  0.00675
   1934.    5.171  3.29E-07  1.23E-04  3.70E-09  1.38E-06  0.00E+00  0.00E+00  3.33E-07  1.25E-04  9.32E-03  0.00474
   1936.    5.165  4.26E-07  1.60E-04  8.37E-09  3.14E-06  0.00E+00  0.00E+00  4.34E-07  1.63E-04  9.32E-03  0.01074
   1938.    5.160  4.11E-07  1.54E-04  3.93E-09  1.48E-06  0.00E+00  0.00E+00  4.15E-07  1.56E-04  9.32E-03  0.00506
   1940.    5.155  3.31E-07  1.25E-04  5.69E-10  2.14E-07  0.00E+00  0.00E+00  3.32E-07  1.25E-04  9.32E-03  0.00074
   1942.    5.149  1.93E-07  7.27E-05  3.79E-12  1.43E-09  0.00E+00  0.00E+00  1.93E-07  7.27E-05  9.32E-03  0.00000
   1944.    5.144  1.65E-07  6.22E-05  1.18E-15  4.46E-13  0.00E+00  0.00E+00  1.65E-07  6.22E-05  9.32E-03  0.00000
   1946.    5.139  2.16E-07  8.17E-05  1.45E-10  5.47E-08  0.00E+00  0.00E+00  2.16E-07  8.18E-05  9.32E-03  0.00019
   1948.    5.133  3.38E-07  1.28E-04  1.35E-09  5.14E-07  0.00E+00  0.00E+00  3.39E-07  1.29E-04  9.32E-03  0.00181
   1950.    5.128  4.08E-07  1.55E-04  8.78E-09  3.34E-06  0.00E+00  0.00E+00  4.16E-07  1.58E-04  9.32E-03  0.01184
   1952.    5.123  4.24E-07  1.62E-04  1.83E-08  6.98E-06  0.00E+00  0.00E+00  4.43E-07  1.69E-04  9.32E-03  0.02480
   1954.    5.118  3.36E-07  1.28E-04  7.87E-09  3.01E-06  0.00E+00  0.00E+00  3.44E-07  1.31E-04  9.32E-03  0.01067
   1956.    5.112  3.07E-07  1.18E-04  1.57E-09  6.02E-07  0.00E+00  0.00E+00  3.09E-07  1.18E-04  9.32E-03  0.00217
   1958.    5.107  3.88E-07  1.49E-04  1.44E-08  5.53E-06  0.00E+00  0.00E+00  4.02E-07  1.54E-04  9.32E-03  0.01994
   1960.    5.102  3.67E-07  1.41E-04  1.43E-08  5.49E-06  0.00E+00  0.00E+00  3.82E-07  1.47E-04  9.32E-03  0.01979
   1962.    5.097  3.54E-07  1.36E-04  6.43E-09  2.48E-06  0.00E+00  0.00E+00  3.60E-07  1.39E-04  9.33E-03  0.00901
   1964.    5.092  3.70E-07  1.43E-04  7.20E-09  2.78E-06  0.00E+00  0.00E+00  3.77E-07  1.45E-04  9.33E-03  0.01011
   1966.    5.086  2.29E-07  8.86E-05  9.99E-10  3.86E-07  0.00E+00  0.00E+00  2.30E-07  8.90E-05  9.33E-03  0.00141
   1968.    5.081  2.37E-07  9.18E-05  1.00E-09  3.89E-07  0.00E+00  0.00E+00  2.38E-07  9.22E-05  9.33E-03  0.00144
   1970.    5.076  3.79E-07  1.47E-04  2.41E-08  9.34E-06  0.00E+00  0.00E+00  4.03E-07  1.56E-04  9.33E-03  0.03469
   1972.    5.071  4.13E-07  1.61E-04  8.00E-08  3.11E-05  0.00E+00  0.00E+00  4.93E-07  1.92E-04  9.33E-03  0.11574
   1974.    5.066  3.93E-07  1.53E-04  1.01E-07  3.92E-05  0.00E+00  0.00E+00  4.94E-07  1.93E-04  9.33E-03  0.14630
   1976.    5.061  3.75E-07  1.46E-04  6.52E-08  2.55E-05  0.00E+00  0.00E+00  4.40E-07  1.72E-04  9.33E-03  0.09532
   1978.    5.056  3.79E-07  1.48E-04  1.04E-07  4.07E-05  0.00E+00  0.00E+00  4.83E-07  1.89E-04  9.33E-03  0.15348
   1980.    5.051  3.74E-07  1.47E-04  1.28E-07  5.01E-05  0.00E+00  0.00E+00  5.02E-07  1.97E-04  9.33E-03  0.18935
   1982.    5.045  3.85E-07  1.51E-04  9.54E-08  3.75E-05  0.00E+00  0.00E+00  4.80E-07  1.89E-04  9.33E-03  0.14228
   1984.    5.040  3.95E-07  1.55E-04  7.09E-08  2.79E-05  0.00E+00  0.00E+00  4.66E-07  1.83E-04  9.33E-03  0.10640
   1986.    5.035  3.52E-07  1.39E-04  2.47E-08  9.74E-06  0.00E+00  0.00E+00  3.77E-07  1.49E-04  9.34E-03  0.03721
   1988.    5.030  2.53E-07  1.00E-04  2.13E-09  8.43E-07  0.00E+00  0.00E+00  2.56E-07  1.01E-04  9.34E-03  0.00323
   1990.    5.025  2.26E-07  8.93E-05  2.26E-11  8.94E-09  0.00E+00  0.00E+00  2.26E-07  8.93E-05  9.34E-03  0.00003
   1992.    5.020  1.72E-07  6.81E-05  3.66E-12  1.45E-09  0.00E+00  0.00E+00  1.72E-07  6.81E-05  9.34E-03  0.00001
   1994.    5.015  2.69E-07  1.07E-04  6.10E-09  2.42E-06  0.00E+00  0.00E+00  2.75E-07  1.09E-04  9.34E-03  0.00952
   1996.    5.010  3.71E-07  1.48E-04  2.49E-08  9.91E-06  0.00E+00  0.00E+00  3.96E-07  1.58E-04  9.34E-03  0.03893
   1998.    5.005  3.27E-07  1.30E-04  1.87E-08  7.47E-06  0.00E+00  0.00E+00  3.46E-07  1.38E-04  9.34E-03  0.02939
   2000.    5.000  3.24E-07  1.30E-04  5.27E-08  2.11E-05  0.00E+00  0.00E+00  3.77E-07  1.51E-04  9.34E-03  0.08374
  iv         2005
1                                             RADIANCE(WATTS/CM2-STER-XXX)
0  FREQ   WAVLEN    PATH THERMAL      SURFACE EMISSION    SURFACE REFLECTED     TOTAL RADIANCE   INTEGRAL    TOTAL
  (CM-1) (MICRN)    (CM-1)   (MICRN)    (CM-1)   (MICRN)    (CM-1)   (MICRN)    (CM-1)   (MICRN)    (CM-1)   TRANS

   2002.    4.995  3.43E-07  1.38E-04  1.32E-07  5.30E-05  0.00E+00  0.00E+00  4.76E-07  1.91E-04  9.34E-03  0.21097
   2004.    4.990  3.31E-07  1.33E-04  1.55E-07  6.23E-05  0.00E+00  0.00E+00  4.86E-07  1.95E-04  9.34E-03  0.24875
   2006.    4.985  3.31E-07  1.33E-04  8.61E-08  3.46E-05  0.00E+00  0.00E+00  4.17E-07  1.68E-04  9.34E-03  0.13866
   2008.    4.980  3.00E-07  1.21E-04  1.53E-08  6.17E-06  0.00E+00  0.00E+00  3.15E-07  1.27E-04  9.34E-03  0.02482
   2010.    4.975  3.23E-07  1.30E-04  5.08E-08  2.05E-05  0.00E+00  0.00E+00  3.74E-07  1.51E-04  9.34E-03  0.08355
   2012.    4.970  3.44E-07  1.39E-04  1.04E-07  4.20E-05  0.00E+00  0.00E+00  4.48E-07  1.81E-04  9.34E-03  0.17095
   2014.    4.965  3.34E-07  1.35E-04  6.22E-08  2.52E-05  0.00E+00  0.00E+00  3.96E-07  1.61E-04  9.35E-03  0.10292
   2016.    4.960  2.33E-07  9.47E-05  8.66E-09  3.52E-06  0.00E+00  0.00E+00  2.42E-07  9.83E-05  9.35E-03  0.01438
   2018.    4.955  1.78E-07  7.24E-05  7.32E-12  2.98E-09  0.00E+00  0.00E+00  1.78E-07  7.24E-05  9.35E-03  0.00001
   2020.    4.950  2.71E-07  1.11E-04  1.37E-08  5.59E-06  0.00E+00  0.00E+00  2.85E-07  1.16E-04  9.35E-03  0.02332
   2022.    4.946  3.20E-07  1.31E-04  2.65E-08  1.08E-05  0.00E+00  0.00E+00  3.46E-07  1.42E-04  9.35E-03  0.04519
   2024.    4.941  3.15E-07  1.29E-04  3.64E-08  1.49E-05  0.00E+00  0.00E+00  3.51E-07  1.44E-04  9.35E-03  0.06254
   2026.    4.936  3.05E-07  1.25E-04  4.41E-08  1.81E-05  0.00E+00  0.00E+00  3.49E-07  1.43E-04  9.35E-03  0.07611
   2028.    4.931  2.77E-07  1.14E-04  1.03E-07  4.23E-05  0.00E+00  0.00E+00  3.79E-07  1.56E-04  9.35E-03  0.17933
   2030.    4.926  2.50E-07  1.03E-04  2.13E-07  8.76E-05  0.00E+00  0.00E+00  4.63E-07  1.91E-04  9.35E-03  0.37265
   2032.    4.921  2.32E-07  9.57E-05  2.30E-07  9.48E-05  0.00E+00  0.00E+00  4.61E-07  1.91E-04  9.35E-03  0.40459
   2034.    4.916  2.61E-07  1.08E-04  1.58E-07  6.53E-05  0.00E+00  0.00E+00  4.19E-07  1.73E-04  9.35E-03  0.28013
   2036.    4.912  2.64E-07  1.09E-04  1.28E-07  5.31E-05  0.00E+00  0.00E+00  3.92E-07  1.62E-04  9.35E-03  0.22890
   2038.    4.907  2.72E-07  1.13E-04  6.90E-08  2.87E-05  0.00E+00  0.00E+00  3.41E-07  1.41E-04  9.35E-03  0.12394
   2040.    4.902  2.50E-07  1.04E-04  2.84E-08  1.18E-05  0.00E+00  0.00E+00  2.79E-07  1.16E-04  9.35E-03  0.05120
   2042.    4.897  2.20E-07  9.15E-05  2.23E-09  9.31E-07  0.00E+00  0.00E+00  2.22E-07  9.25E-05  9.35E-03  0.00407
   2044.    4.892  2.42E-07  1.01E-04  3.38E-08  1.41E-05  0.00E+00  0.00E+00  2.76E-07  1.15E-04  9.36E-03  0.06234
   2046.    4.888  2.54E-07  1.06E-04  6.75E-08  2.82E-05  0.00E+00  0.00E+00  3.21E-07  1.34E-04  9.36E-03  0.12480
   2048.    4.883  2.18E-07  9.12E-05  1.13E-07  4.76E-05  0.00E+00  0.00E+00  3.31E-07  1.39E-04  9.36E-03  0.21151
   2050.    4.878  1.87E-07  7.85E-05  1.59E-07  6.69E-05  0.00E+00  0.00E+00  3.46E-07  1.45E-04  9.36E-03  0.29811
   2052.    4.873  1.85E-07  7.78E-05  1.41E-07  5.94E-05  0.00E+00  0.00E+00  3.26E-07  1.37E-04  9.36E-03  0.26602
   2054.    4.869  1.81E-07  7.64E-05  1.39E-07  5.84E-05  0.00E+00  0.00E+00  3.20E-07  1.35E-04  9.36E-03  0.26318
   2056.    4.864  1.66E-07  7.00E-05  1.63E-07  6.88E-05  0.00E+00  0.00E+00  3.28E-07  1.39E-04  9.36E-03  0.31128
   2058.    4.859  1.80E-07  7.64E-05  1.20E-07  5.08E-05  0.00E+00  0.00E+00  3.00E-07  1.27E-04  9.36E-03  0.23065
   2060.    4.854  1.93E-07  8.19E-05  5.23E-08  2.22E-05  0.00E+00  0.00E+00  2.45E-07  1.04E-04  9.36E-03  0.10118
   2062.    4.850  1.98E-07  8.42E-05  4.90E-08  2.08E-05  0.00E+00  0.00E+00  2.47E-07  1.05E-04  9.36E-03  0.09560
   2064.    4.845  1.63E-07  6.93E-05  2.03E-08  8.64E-06  0.00E+00  0.00E+00  1.83E-07  7.79E-05  9.36E-03  0.03961
   2066.    4.840  1.69E-07  7.21E-05  2.07E-08  8.83E-06  0.00E+00  0.00E+00  1.90E-07  8.09E-05  9.36E-03  0.04113
   2068.    4.836  1.88E-07  8.02E-05  8.82E-08  3.77E-05  0.00E+00  0.00E+00  2.76E-07  1.18E-04  9.36E-03  0.17606
   2070.    4.831  1.57E-07  6.72E-05  1.54E-07  6.60E-05  0.00E+00  0.00E+00  3.11E-07  1.33E-04  9.36E-03  0.30914
   2072.    4.826  1.73E-07  7.44E-05  1.20E-07  5.13E-05  0.00E+00  0.00E+00  2.93E-07  1.26E-04  9.36E-03  0.24096
   2074.    4.822  1.97E-07  8.48E-05  7.27E-08  3.13E-05  0.00E+00  0.00E+00  2.70E-07  1.16E-04  9.36E-03  0.14770
   2076.    4.817  1.42E-07  6.14E-05  6.41E-08  2.76E-05  0.00E+00  0.00E+00  2.06E-07  8.90E-05  9.36E-03  0.13098
   2078.    4.812  9.91E-08  4.28E-05  3.23E-08  1.39E-05  0.00E+00  0.00E+00  1.31E-07  5.68E-05  9.36E-03  0.06658
   2080.    4.808  1.57E-07  6.78E-05  8.08E-08  3.50E-05  0.00E+00  0.00E+00  2.37E-07  1.03E-04  9.37E-03  0.16798
   2082.    4.803  1.59E-07  6.87E-05  1.37E-07  5.92E-05  0.00E+00  0.00E+00  2.95E-07  1.28E-04  9.37E-03  0.28579
   2084.    4.798  1.41E-07  6.14E-05  1.82E-07  7.92E-05  0.00E+00  0.00E+00  3.24E-07  1.41E-04  9.37E-03  0.38372
   2086.    4.794  1.71E-07  7.45E-05  1.29E-07  5.63E-05  0.00E+00  0.00E+00  3.00E-07  1.31E-04  9.37E-03  0.27331
   2088.    4.789  2.07E-07  9.03E-05  5.04E-08  2.20E-05  0.00E+00  0.00E+00  2.58E-07  1.12E-04  9.37E-03  0.10719
   2090.    4.785  1.95E-07  8.52E-05  2.86E-08  1.25E-05  0.00E+00  0.00E+00  2.24E-07  9.77E-05  9.37E-03  0.06147
   2092.    4.780  1.83E-07  8.03E-05  6.21E-08  2.72E-05  0.00E+00  0.00E+00  2.46E-07  1.07E-04  9.37E-03  0.13450
   2094.    4.776  1.62E-07  7.12E-05  1.05E-07  4.60E-05  0.00E+00  0.00E+00  2.67E-07  1.17E-04  9.37E-03  0.22834
   2096.    4.771  1.55E-07  6.80E-05  1.53E-07  6.73E-05  0.00E+00  0.00E+00  3.08E-07  1.35E-04  9.37E-03  0.33571
   2098.    4.766  1.47E-07  6.48E-05  1.69E-07  7.45E-05  0.00E+00  0.00E+00  3.17E-07  1.39E-04  9.37E-03  0.37348
   2100.    4.762  1.45E-07  6.40E-05  1.66E-07  7.33E-05  0.00E+00  0.00E+00  3.11E-07  1.37E-04  9.37E-03  0.36930
  iv         2105
1                                             RADIANCE(WATTS/CM2-STER-XXX)
0  FREQ   WAVLEN    PATH THERMAL      SURFACE EMISSION    SURFACE REFLECTED     TOTAL RADIANCE   INTEGRAL    TOTAL
  (CM-1) (MICRN)    (CM-1)   (MICRN)    (CM-1)   (MICRN)    (CM-1)   (MICRN)    (CM-1)   (MICRN)    (CM-1)   TRANS

   2102.    4.757  1.16E-07  5.12E-05  2.20E-07  9.73E-05  0.00E+00  0.00E+00  3.36E-07  1.49E-04  9.37E-03  0.49306
   2104.    4.753  1.04E-07  4.62E-05  2.34E-07  1.03E-04  0.00E+00  0.00E+00  3.38E-07  1.50E-04  9.37E-03  0.52590
   2106.    4.748  1.37E-07  6.07E-05  1.60E-07  7.08E-05  0.00E+00  0.00E+00  2.96E-07  1.31E-04  9.37E-03  0.36164
   2108.    4.744  1.32E-07  5.86E-05  1.65E-07  7.31E-05  0.00E+00  0.00E+00  2.97E-07  1.32E-04  9.37E-03  0.37618
   2110.    4.739  9.69E-08  4.31E-05  2.42E-07  1.08E-04  0.00E+00  0.00E+00  3.39E-07  1.51E-04  9.37E-03  0.55619
   2112.    4.735  1.17E-07  5.22E-05  2.29E-07  1.02E-04  0.00E+00  0.00E+00  3.46E-07  1.54E-04  9.37E-03  0.52851
   2114.    4.730  1.68E-07  7.49E-05  8.78E-08  3.93E-05  0.00E+00  0.00E+00  2.55E-07  1.14E-04  9.38E-03  0.20392
   2116.    4.726  1.60E-07  7.18E-05  8.62E-08  3.86E-05  0.00E+00  0.00E+00  2.47E-07  1.10E-04  9.38E-03  0.20297
   2118.    4.721  1.01E-07  4.53E-05  2.08E-07  9.32E-05  0.00E+00  0.00E+00  3.09E-07  1.38E-04  9.38E-03  0.49095
   2120.    4.717  9.94E-08  4.47E-05  1.98E-07  8.90E-05  0.00E+00  0.00E+00  2.97E-07  1.34E-04  9.38E-03  0.47048
   2122.    4.713  1.36E-07  6.13E-05  1.40E-07  6.30E-05  0.00E+00  0.00E+00  2.76E-07  1.24E-04  9.38E-03  0.33500
   2124.    4.708  1.41E-07  6.34E-05  1.29E-07  5.83E-05  0.00E+00  0.00E+00  2.70E-07  1.22E-04  9.38E-03  0.31161
   2126.    4.704  9.50E-08  4.29E-05  2.09E-07  9.46E-05  0.00E+00  0.00E+00  3.04E-07  1.38E-04  9.38E-03  0.50893
   2128.    4.699  7.60E-08  3.44E-05  2.35E-07  1.06E-04  0.00E+00  0.00E+00  3.11E-07  1.41E-04  9.38E-03  0.57432
   2130.    4.695  8.68E-08  3.94E-05  2.17E-07  9.82E-05  0.00E+00  0.00E+00  3.03E-07  1.38E-04  9.38E-03  0.53322
   2132.    4.690  7.22E-08  3.28E-05  2.80E-07  1.27E-04  0.00E+00  0.00E+00  3.53E-07  1.60E-04  9.38E-03  0.69511
   2134.    4.686  8.61E-08  3.92E-05  2.67E-07  1.21E-04  0.00E+00  0.00E+00  3.53E-07  1.61E-04  9.38E-03  0.66523
   2136.    4.682  1.56E-07  7.12E-05  1.15E-07  5.24E-05  0.00E+00  0.00E+00  2.71E-07  1.24E-04  9.38E-03  0.28795
   2138.    4.677  1.93E-07  8.84E-05  5.37E-08  2.45E-05  0.00E+00  0.00E+00  2.47E-07  1.13E-04  9.38E-03  0.13604
   2140.    4.673  1.58E-07  7.25E-05  1.45E-07  6.62E-05  0.00E+00  0.00E+00  3.03E-07  1.39E-04  9.38E-03  0.36929
   2142.    4.669  1.01E-07  4.62E-05  2.50E-07  1.15E-04  0.00E+00  0.00E+00  3.51E-07  1.61E-04  9.38E-03  0.64196
   2144.    4.664  1.13E-07  5.21E-05  2.12E-07  9.76E-05  0.00E+00  0.00E+00  3.26E-07  1.50E-04  9.38E-03  0.54806
   2146.    4.660  1.59E-07  7.31E-05  1.34E-07  6.17E-05  0.00E+00  0.00E+00  2.93E-07  1.35E-04  9.38E-03  0.34839
   2148.    4.655  1.36E-07  6.27E-05  1.80E-07  8.30E-05  0.00E+00  0.00E+00  3.16E-07  1.46E-04  9.39E-03  0.47155
   2150.    4.651  9.28E-08  4.29E-05  2.48E-07  1.15E-04  0.00E+00  0.00E+00  3.41E-07  1.58E-04  9.39E-03  0.65417
   2152.    4.647  1.07E-07  4.97E-05  2.14E-07  9.93E-05  0.00E+00  0.00E+00  3.22E-07  1.49E-04  9.39E-03  0.56919
   2154.    4.643  1.04E-07  4.81E-05  2.17E-07  1.00E-04  0.00E+00  0.00E+00  3.20E-07  1.49E-04  9.39E-03  0.57925
   2156.    4.638  9.76E-08  4.54E-05  2.28E-07  1.06E-04  0.00E+00  0.00E+00  3.26E-07  1.51E-04  9.39E-03  0.61429
   2158.    4.634  8.18E-08  3.81E-05  2.48E-07  1.15E-04  0.00E+00  0.00E+00  3.30E-07  1.54E-04  9.39E-03  0.67245
   2160.    4.630  9.91E-08  4.62E-05  2.18E-07  1.02E-04  0.00E+00  0.00E+00  3.17E-07  1.48E-04  9.39E-03  0.59418
   2162.    4.625  1.44E-07  6.75E-05  1.28E-07  6.00E-05  0.00E+00  0.00E+00  2.73E-07  1.27E-04  9.39E-03  0.35285
   2164.    4.621  9.95E-08  4.66E-05  2.04E-07  9.53E-05  0.00E+00  0.00E+00  3.03E-07  1.42E-04  9.39E-03  0.56441
   2166.    4.617  6.19E-08  2.90E-05  2.68E-07  1.26E-04  0.00E+00  0.00E+00  3.29E-07  1.55E-04  9.39E-03  0.74567
   2168.    4.613  5.06E-08  2.38E-05  2.80E-07  1.32E-04  0.00E+00  0.00E+00  3.31E-07  1.56E-04  9.39E-03  0.78682
   2170.    4.608  6.41E-08  3.02E-05  2.53E-07  1.19E-04  0.00E+00  0.00E+00  3.17E-07  1.49E-04  9.39E-03  0.71418
   2172.    4.604  8.15E-08  3.84E-05  2.26E-07  1.06E-04  0.00E+00  0.00E+00  3.07E-07  1.45E-04  9.39E-03  0.64251
   2174.    4.600  5.71E-08  2.70E-05  2.62E-07  1.24E-04  0.00E+00  0.00E+00  3.19E-07  1.51E-04  9.39E-03  0.75133
   2176.    4.596  4.73E-08  2.24E-05  2.73E-07  1.29E-04  0.00E+00  0.00E+00  3.20E-07  1.52E-04  9.39E-03  0.78814
   2178.    4.591  4.59E-08  2.18E-05  2.72E-07  1.29E-04  0.00E+00  0.00E+00  3.18E-07  1.51E-04  9.39E-03  0.79152
   2180.    4.587  7.01E-08  3.33E-05  2.30E-07  1.09E-04  0.00E+00  0.00E+00  3.00E-07  1.43E-04  9.40E-03  0.67379
   2182.    4.583  6.90E-08  3.28E-05  2.30E-07  1.09E-04  0.00E+00  0.00E+00  2.99E-07  1.42E-04  9.40E-03  0.67746
   2184.    4.579  6.86E-08  3.27E-05  2.30E-07  1.10E-04  0.00E+00  0.00E+00  2.99E-07  1.43E-04  9.40E-03  0.68280
   2186.    4.575  1.02E-07  4.88E-05  1.73E-07  8.27E-05  0.00E+00  0.00E+00  2.75E-07  1.31E-04  9.40E-03  0.51692
   2188.    4.570  8.94E-08  4.28E-05  1.90E-07  9.12E-05  0.00E+00  0.00E+00  2.80E-07  1.34E-04  9.40E-03  0.57327
   2190.    4.566  6.07E-08  2.91E-05  2.36E-07  1.13E-04  0.00E+00  0.00E+00  2.97E-07  1.42E-04  9.40E-03  0.71462
   2192.    4.562  6.21E-08  2.98E-05  2.30E-07  1.11E-04  0.00E+00  0.00E+00  2.92E-07  1.40E-04  9.40E-03  0.70158
   2194.    4.558  6.31E-08  3.04E-05  2.24E-07  1.08E-04  0.00E+00  0.00E+00  2.87E-07  1.38E-04  9.40E-03  0.68903
   2196.    4.554  4.28E-08  2.07E-05  2.51E-07  1.21E-04  0.00E+00  0.00E+00  2.94E-07  1.42E-04  9.40E-03  0.77792
   2198.    4.550  5.76E-08  2.78E-05  2.27E-07  1.10E-04  0.00E+00  0.00E+00  2.84E-07  1.37E-04  9.40E-03  0.70614
   2200.    4.545  7.25E-08  3.51E-05  2.00E-07  9.66E-05  0.00E+00  0.00E+00  2.72E-07  1.32E-04  9.40E-03  0.62609
0INTEGRATED ABSORPTION FROM    2 TO 2200 CM-1 =   1898.99 CM-1
 AVERAGE TRANSMITTANCE =0.1360

0INTEGRATED RADIANCE =  9.401E-03 WATTS CM-2 STER-1
 MINIMUM RADIANCE    =  1.190E-09 WATTS CM-2 STER-1 (CM-1)-1 AT        2.0 CM-1
 MAXIMUM RADIANCE    =  1.267E-05 WATTS CM-2 STER-1 (CM-1)-1 AT      560.0 CM-1
 BOUNDARY TEMPERATURE =     299.70 K
 BOUNDARY EMISSIVITY =       0.971
0 CARD 5 *****    0


