*****  MODTRAN3 Version 1.3  12/1/95  *****
0 CARD 1  *****T   1    3    1    0    0    0    0    0    0    0    0    0   -1   0.000  -1.00
 co2mx co2rat ch4rat h2orat t_o3rat s_o3rat scalefreon    800.00000       2.4242425       1.0000000       1.0000000       1.0000000       1.0000000       1.0000000    
0 CARD 2  *****    0    0    0    0    0    0     0.000     0.000     0.000     0.000     0.000
0 CARD 3  *****    70.000     0.000   180.000     0.000     0.000     0.000    0
0 CARD 4  *****         2      2200         2         3
0 PROGRAM WILL COMPUTE RADIANCE                
0 ATMOSPHERIC MODEL
          TEMPERATURE =    1     TROPICAL MODEL      
          WATER VAPOR =    1     TROPICAL MODEL      
          OZONE       =    1     TROPICAL MODEL      
                      M4 =     1 M5 =     1 M6 =     1 MDEF =     1
0 SLANT PATH TO SPACE
          H1    =     70.000 KM
          HMIN  =      0.000 KM
          ANGLE =    180.000 DEG
0 FREQUENCY RANGE
             IV1 =         2 CM-1  (   5000.00 MICROMETERS)
             IV2 =      2200 CM-1  (      4.55 MICROMETERS)
             IDV =         2 CM-1
           IFWHM =         3 CM-1
1
  ATMOSPHERIC PROFILES

   I     Z       P       T        N2       CNTMSLF MOL SCAT     N-1     O3 (UV)  O2 (UV)
        (KM)    (MB)    (K)            (MOL/CM2 KM)   (-)       (-)  (ATM CM/KM) (ATM CM/KM)

   1     0.00 1013.000  300.5  7.584E-01 1.615E+21 9.089E-01 2.603E-04 2.606E-03 3.330E+04
   2     1.00  904.000  294.5  6.288E-01 7.563E+20 8.276E-01 2.373E-04 2.605E-03 2.916E+04
   3     2.00  805.000  288.5  5.196E-01 3.871E+20 7.523E-01 2.158E-04 2.513E-03 2.552E+04
   4     3.00  715.000  284.5  4.215E-01 9.871E+19 6.776E-01 1.946E-04 2.373E-03 2.211E+04
   5     4.00  633.000  277.8  3.465E-01 2.164E+19 6.144E-01 1.766E-04 2.186E-03 1.937E+04
   6     5.00  559.000  271.1  2.837E-01 1.006E+19 5.559E-01 1.598E-04 2.093E-03 1.697E+04
   7     6.00  492.000  264.4  2.311E-01 3.230E+18 5.017E-01 1.442E-04 2.000E-03 1.484E+04
   8     7.00  432.000  257.8  1.874E-01 9.859E+17 4.518E-01 1.299E-04 1.907E-03 1.298E+04
   9     8.00  378.000  251.1  1.512E-01 2.793E+17 4.059E-01 1.167E-04 1.813E-03 1.133E+04
  10     9.00  329.000  244.4  1.209E-01 6.431E+16 3.630E-01 1.044E-04 1.814E-03 9.864E+03
  11    10.00  286.000  237.8  9.654E-02 1.117E+16 3.243E-01 9.326E-05 1.813E-03 8.596E+03
  12    11.00  247.000  230.9  7.637E-02 1.291E+15 2.884E-01 8.295E-05 1.906E-03 7.466E+03
  13    12.00  213.000  224.4  6.013E-02 1.607E+14 2.559E-01 7.360E-05 1.999E-03 6.481E+03
  14    13.00  182.000  217.8  4.660E-02 1.446E+13 2.253E-01 6.480E-05 2.091E-03 5.586E+03
  15    14.00  156.000  211.1  3.645E-02 4.465E+12 1.993E-01 5.730E-05 2.091E-03 4.850E+03
  16    15.00  132.000  204.5  2.781E-02 1.409E+12 1.740E-01 5.005E-05 2.184E-03 4.160E+03
  17    16.00  111.000  197.8  2.102E-02 5.990E+11 1.513E-01 4.352E-05 2.183E-03 3.557E+03
  18    17.00   93.700  195.6  1.532E-02 4.079E+11 1.292E-01 3.715E-05 3.227E-03 2.987E+03
  19    18.00   78.900  199.6  1.043E-02 2.497E+11 1.066E-01 3.065E-05 5.326E-03 2.423E+03
  20    19.00   66.600  203.5  7.149E-03 1.530E+11 8.824E-02 2.538E-05 8.377E-03 1.978E+03
  21    20.00   56.500  207.5  4.948E-03 1.059E+11 7.342E-02 2.111E-05 1.027E-02 1.627E+03
  22    21.00   48.000  211.5  3.438E-03 7.644E+10 6.119E-02 1.760E-05 1.101E-02 1.343E+03
  23    22.00   40.900  215.4  2.406E-03 5.973E+10 5.120E-02 1.472E-05 1.228E-02 1.115E+03
  24    23.00   35.000  217.8  1.724E-03 4.590E+10 4.333E-02 1.246E-05 1.472E-02 9.375E+02
  25    24.00   30.000  220.0  1.241E-03 4.024E+10 3.677E-02 1.057E-05 1.580E-02 7.914E+02
  26    25.00   25.700  222.2  8.928E-04 2.986E+10 3.119E-02 8.969E-06 1.683E-02 6.682E+02
  27    30.00   12.200  233.1  1.828E-04 9.262E+09 1.411E-02 4.058E-06 1.311E-02 2.982E+02
  28    35.00    6.000  243.9  4.039E-05 2.706E+09 6.633E-03 1.908E-06 6.429E-03 1.393E+02
  29    40.00    3.050  254.8  9.563E-06 8.187E+08 3.227E-03 9.282E-07 2.419E-03 6.759E+01
  30    45.00    1.590  265.6  2.392E-06 2.460E+08 1.614E-03 4.642E-07 7.258E-04 3.376E+01
  31    50.00    0.854  271.0  6.627E-07 7.554E+07 8.496E-04 2.444E-07 2.377E-04 1.776E+01
  32    70.00    0.058  219.7  4.652E-09 2.982E+05 7.118E-05 2.047E-08 2.134E-06 1.487E+00
  33   100.00    0.000  191.5  1.520E-13 7.701E-02 4.069E-07 1.170E-10 1.627E-08 6.506E-03
1
  ATMOSPHERIC PROFILES

   I     Z       P       T      CNTMFRN     HNO3    AEROSOL 1 AEROSOL 2 AEROSOL 3 AEROSOL 4 AER1*RH   CIRRUS         RH
        (KM)    (MB)    (K)   MOL/CM2 KM ATM CM/KM   (-)       (-)       (-)       (-)       (-)       (-)      (PERCNT)

   1     0.00 1013.000  300.5  6.070E+22 0.000E+00 0.000E+00 0.000E+00 0.000E+00 0.000E+00 0.000E+00 0.000E+00 7.223E+01
   2     1.00  904.000  294.5  3.808E+22 0.000E+00 0.000E+00 0.000E+00 0.000E+00 0.000E+00 0.000E+00 0.000E+00 6.945E+01
   3     2.00  805.000  288.5  2.487E+22 0.000E+00 0.000E+00 0.000E+00 0.000E+00 0.000E+00 0.000E+00 0.000E+00 7.095E+01
   4     3.00  715.000  284.5  1.139E+22 0.000E+00 0.000E+00 0.000E+00 0.000E+00 0.000E+00 0.000E+00 0.000E+00 4.587E+01
   5     4.00  633.000  277.8  4.855E+21 0.000E+00 0.000E+00 0.000E+00 0.000E+00 0.000E+00 0.000E+00 0.000E+00 3.310E+01
   6     5.00  559.000  271.1  2.999E+21 0.000E+00 0.000E+00 0.000E+00 0.000E+00 0.000E+00 0.000E+00 0.000E+00 3.565E+01
   7     6.00  492.000  264.4  1.535E+21 0.000E+00 0.000E+00 0.000E+00 0.000E+00 0.000E+00 0.000E+00 0.000E+00 3.278E+01
   8     7.00  432.000  257.8  7.645E+20 0.000E+00 0.000E+00 0.000E+00 0.000E+00 0.000E+00 0.000E+00 0.000E+00 3.003E+01
   9     8.00  378.000  251.1  3.657E+20 0.000E+00 0.000E+00 0.000E+00 0.000E+00 0.000E+00 0.000E+00 0.000E+00 2.756E+01
  10     9.00  329.000  244.4  1.570E+20 0.000E+00 0.000E+00 0.000E+00 0.000E+00 0.000E+00 0.000E+00 0.000E+00 2.361E+01
  11    10.00  286.000  237.8  5.848E+19 0.000E+00 0.000E+00 0.000E+00 0.000E+00 0.000E+00 0.000E+00 0.000E+00 1.808E+01
  12    11.00  247.000  230.9  1.768E+19 0.000E+00 0.000E+00 0.000E+00 0.000E+00 0.000E+00 0.000E+00 0.000E+00 1.213E+01
  13    12.00  213.000  224.4  5.535E+18 0.000E+00 0.000E+00 0.000E+00 0.000E+00 0.000E+00 0.000E+00 0.000E+00 8.486E+00
  14    13.00  182.000  217.8  1.462E+18 0.000E+00 0.000E+00 0.000E+00 0.000E+00 0.000E+00 0.000E+00 0.000E+00 5.361E+00
  15    14.00  156.000  211.1  7.184E+17 0.000E+00 0.000E+00 0.000E+00 0.000E+00 0.000E+00 0.000E+00 0.000E+00 6.708E+00
  16    15.00  132.000  204.5  3.525E+17 0.000E+00 0.000E+00 0.000E+00 0.000E+00 0.000E+00 0.000E+00 0.000E+00 8.915E+00
  17    16.00  111.000  197.8  1.998E+17 0.000E+00 0.000E+00 0.000E+00 0.000E+00 0.000E+00 0.000E+00 0.000E+00 1.494E+01
  18    17.00   93.700  195.6  1.408E+17 0.000E+00 0.000E+00 0.000E+00 0.000E+00 0.000E+00 0.000E+00 0.000E+00 1.708E+01
  19    18.00   78.900  199.6  9.088E+16 0.000E+00 0.000E+00 0.000E+00 0.000E+00 0.000E+00 0.000E+00 0.000E+00 7.430E+00
  20    19.00   66.600  203.5  5.890E+16 0.000E+00 0.000E+00 0.000E+00 0.000E+00 0.000E+00 0.000E+00 0.000E+00 3.367E+00
  21    20.00   56.500  207.5  4.077E+16 0.000E+00 0.000E+00 0.000E+00 0.000E+00 0.000E+00 0.000E+00 0.000E+00 1.640E+00
  22    21.00   48.000  211.5  2.887E+16 0.000E+00 0.000E+00 0.000E+00 0.000E+00 0.000E+00 0.000E+00 0.000E+00 8.348E-01
  23    22.00   40.900  215.4  2.135E+16 0.000E+00 0.000E+00 0.000E+00 0.000E+00 0.000E+00 0.000E+00 0.000E+00 4.577E-01
  24    23.00   35.000  217.8  1.584E+16 0.000E+00 0.000E+00 0.000E+00 0.000E+00 0.000E+00 0.000E+00 0.000E+00 3.020E-01
  25    24.00   30.000  220.0  1.258E+16 0.000E+00 0.000E+00 0.000E+00 0.000E+00 0.000E+00 0.000E+00 0.000E+00 2.193E-01
  26    25.00   25.700  222.2  9.195E+15 0.000E+00 0.000E+00 0.000E+00 0.000E+00 0.000E+00 0.000E+00 0.000E+00 1.474E-01
  27    30.00   12.200  233.1  2.317E+15 0.000E+00 0.000E+00 0.000E+00 0.000E+00 0.000E+00 0.000E+00 0.000E+00 2.602E-02
  28    35.00    6.000  243.9  5.887E+14 0.000E+00 0.000E+00 0.000E+00 0.000E+00 0.000E+00 0.000E+00 0.000E+00 5.065E-03
  29    40.00    3.050  254.8  1.576E+14 0.000E+00 0.000E+00 0.000E+00 0.000E+00 0.000E+00 0.000E+00 0.000E+00 1.100E-03
  30    45.00    1.590  265.6  4.320E+13 0.000E+00 0.000E+00 0.000E+00 0.000E+00 0.000E+00 0.000E+00 0.000E+00 2.618E-04
  31    50.00    0.854  271.0  1.260E+13 0.000E+00 0.000E+00 0.000E+00 0.000E+00 0.000E+00 0.000E+00 0.000E+00 9.838E-05
  32    70.00    0.058  219.7  6.633E+10 0.000E+00 0.000E+00 0.000E+00 0.000E+00 0.000E+00 0.000E+00 0.000E+00 6.180E-04
  33   100.00    0.000  191.5  1.927E+05 0.000E+00 0.000E+00 0.000E+00 0.000E+00 0.000E+00 0.000E+00 0.000E+00 1.397E-05
1
  ATMOSPHERIC PROFILES

   I      Z       P       T      H2O      O3       CO2      CO       CH4      N2O      O2       NH3      NO       NO2      SO2
         (KM)    (MB)    (K)  (                                    MBAR                                                       )
   1     0.00 1013.000  300.5  1.89E+01 2.87E-02 8.00E+02 0.00E+00 1.70E+00 0.00E+00 2.09E+05 0.00E+00 0.00E+00 0.00E+00 0.00E+00
   2     1.00  904.000  294.5  1.30E+01 3.15E-02 8.00E+02 0.00E+00 1.70E+00 0.00E+00 2.09E+05 0.00E+00 0.00E+00 0.00E+00 0.00E+00
   3     2.00  805.000  288.5  9.27E+00 3.34E-02 8.00E+02 0.00E+00 1.70E+00 0.00E+00 2.09E+05 0.00E+00 0.00E+00 0.00E+00 0.00E+00
   4     3.00  715.000  284.5  4.68E+00 3.50E-02 8.00E+02 0.00E+00 1.70E+00 0.00E+00 2.09E+05 0.00E+00 0.00E+00 0.00E+00 0.00E+00
   5     4.00  633.000  277.8  2.19E+00 3.56E-02 8.00E+02 0.00E+00 1.70E+00 0.00E+00 2.09E+05 0.00E+00 0.00E+00 0.00E+00 0.00E+00
   6     5.00  559.000  271.1  1.49E+00 3.77E-02 8.00E+02 0.00E+00 1.70E+00 0.00E+00 2.09E+05 0.00E+00 0.00E+00 0.00E+00 0.00E+00
   7     6.00  492.000  264.4  8.47E-01 3.99E-02 8.00E+02 0.00E+00 1.70E+00 0.00E+00 2.09E+05 0.00E+00 0.00E+00 0.00E+00 0.00E+00
   8     7.00  432.000  257.8  4.68E-01 4.22E-02 8.00E+02 0.00E+00 1.70E+00 0.00E+00 2.09E+05 0.00E+00 0.00E+00 0.00E+00 0.00E+00
   9     8.00  378.000  251.1  2.49E-01 4.47E-02 8.00E+02 0.00E+00 1.70E+00 0.00E+00 2.09E+05 0.00E+00 0.00E+00 0.00E+00 0.00E+00
  10     9.00  329.000  244.4  1.19E-01 5.00E-02 8.00E+02 0.00E+00 1.69E+00 0.00E+00 2.09E+05 0.00E+00 0.00E+00 0.00E+00 0.00E+00
  11    10.00  286.000  237.8  4.98E-02 5.60E-02 8.00E+02 0.00E+00 1.68E+00 0.00E+00 2.09E+05 0.00E+00 0.00E+00 0.00E+00 0.00E+00
  12    11.00  247.000  230.9  1.69E-02 6.61E-02 8.00E+02 0.00E+00 1.67E+00 0.00E+00 2.09E+05 0.00E+00 0.00E+00 0.00E+00 0.00E+00
  13    12.00  213.000  224.4  5.97E-03 7.81E-02 8.00E+02 0.00E+00 1.66E+00 0.00E+00 2.09E+05 0.00E+00 0.00E+00 0.00E+00 0.00E+00
  14    13.00  182.000  217.8  1.79E-03 9.29E-02 8.00E+02 0.00E+00 1.64E+00 0.00E+00 2.09E+05 0.00E+00 0.00E+00 0.00E+00 0.00E+00
  15    14.00  156.000  211.1  9.95E-04 1.05E-01 8.00E+02 0.00E+00 1.63E+00 0.00E+00 2.09E+05 0.00E+00 0.00E+00 0.00E+00 0.00E+00
  16    15.00  132.000  204.5  5.59E-04 1.26E-01 8.00E+02 0.00E+00 1.61E+00 0.00E+00 2.09E+05 0.00E+00 0.00E+00 0.00E+00 0.00E+00
  17    16.00  111.000  197.8  3.65E-04 1.44E-01 8.00E+02 0.00E+00 1.58E+00 0.00E+00 2.09E+05 0.00E+00 0.00E+00 0.00E+00 0.00E+00
  18    17.00   93.700  195.6  3.01E-04 2.50E-01 8.00E+02 0.00E+00 1.55E+00 0.00E+00 2.09E+05 0.00E+00 0.00E+00 0.00E+00 0.00E+00
  19    18.00   78.900  199.6  2.35E-04 5.00E-01 8.00E+02 0.00E+00 1.52E+00 0.00E+00 2.09E+05 0.00E+00 0.00E+00 0.00E+00 0.00E+00
  20    19.00   66.600  203.5  1.84E-04 9.50E-01 8.00E+02 0.00E+00 1.48E+00 0.00E+00 2.09E+05 0.00E+00 0.00E+00 0.00E+00 0.00E+00
  21    20.00   56.500  207.5  1.53E-04 1.40E+00 8.00E+02 0.00E+00 1.42E+00 0.00E+00 2.09E+05 0.00E+00 0.00E+00 0.00E+00 0.00E+00
  22    21.00   48.000  211.5  1.30E-04 1.80E+00 8.00E+02 0.00E+00 1.36E+00 0.00E+00 2.09E+05 0.00E+00 0.00E+00 0.00E+00 0.00E+00
  23    22.00   40.900  215.4  1.15E-04 2.40E+00 8.00E+02 0.00E+00 1.27E+00 0.00E+00 2.09E+05 0.00E+00 0.00E+00 0.00E+00 0.00E+00
  24    23.00   35.000  217.8  1.01E-04 3.40E+00 8.00E+02 0.00E+00 1.19E+00 0.00E+00 2.09E+05 0.00E+00 0.00E+00 0.00E+00 0.00E+00
  25    24.00   30.000  220.0  9.45E-05 4.30E+00 8.00E+02 0.00E+00 1.12E+00 0.00E+00 2.09E+05 0.00E+00 0.00E+00 0.00E+00 0.00E+00
  26    25.00   25.700  222.2  8.14E-05 5.40E+00 8.00E+02 0.00E+00 1.05E+00 0.00E+00 2.09E+05 0.00E+00 0.00E+00 0.00E+00 0.00E+00
  27    30.00   12.200  233.1  4.53E-05 9.30E+00 8.00E+02 0.00E+00 9.14E-01 0.00E+00 2.09E+05 0.00E+00 0.00E+00 0.00E+00 0.00E+00
  28    35.00    6.000  243.9  2.45E-05 9.70E+00 8.00E+02 0.00E+00 7.46E-01 0.00E+00 2.09E+05 0.00E+00 0.00E+00 0.00E+00 0.00E+00
  29    40.00    3.050  254.8  1.35E-05 7.50E+00 8.00E+02 0.00E+00 5.64E-01 0.00E+00 2.09E+05 0.00E+00 0.00E+00 0.00E+00 0.00E+00
  30    45.00    1.590  265.6  7.39E-06 4.50E+00 8.00E+02 0.00E+00 3.63E-01 0.00E+00 2.09E+05 0.00E+00 0.00E+00 0.00E+00 0.00E+00
  31    50.00    0.854  271.0  4.09E-06 2.80E+00 8.00E+02 0.00E+00 2.10E-01 0.00E+00 2.09E+05 0.00E+00 0.00E+00 0.00E+00 0.00E+00
  32    70.00    0.058  219.7  2.57E-07 3.00E-01 8.00E+02 0.00E+00 1.50E-01 0.00E+00 2.09E+05 0.00E+00 0.00E+00 0.00E+00 0.00E+00
  33   100.00    0.000  191.5  1.31E-10 4.00E-01 4.73E+02 0.00E+00 1.20E-01 0.00E+00 1.60E+05 0.00E+00 0.00E+00 0.00E+00 0.00E+00
1
  ATMOSPHERIC PROFILES

   I      Z       P       T     CFC-11   CFC-12   CFC-13   CFC-14   CFC-22   CFC-113  CFC-114  CFC-115  CLONO2    HNO4    CHCL2F 
                                 CCL4     N2O5  
         (KM)    (MB)    (K)  (                                 ATM CM/KM                                                     )
   1     0.00 1013.000  300.5  1.27E-05 2.18E-05 9.08E-14 9.08E-14 5.45E-06 1.73E-06 1.09E-06 9.08E-14 5.22E-07 3.94E-08 9.08E-14
                               1.18E-05 2.20E-11
   2     1.00  904.000  294.5  1.16E-05 1.98E-05 8.27E-14 8.27E-14 4.96E-06 1.57E-06 9.92E-07 8.27E-14 4.24E-07 1.77E-07 8.27E-14
                               1.08E-05 7.89E-11
   3     2.00  805.000  288.5  1.05E-05 1.80E-05 7.52E-14 7.52E-14 4.50E-06 1.43E-06 9.02E-07 7.52E-14 3.39E-07 2.88E-07 7.52E-14
                               9.77E-06 1.25E-10
   4     3.00  715.000  284.5  9.48E-06 1.63E-05 6.77E-14 6.77E-14 4.05E-06 1.29E-06 8.13E-07 6.77E-14 2.63E-07 3.75E-07 6.77E-14
                               8.80E-06 1.61E-10
   5     4.00  633.000  277.8  8.60E-06 1.47E-05 6.14E-14 6.14E-14 3.67E-06 1.17E-06 7.37E-07 6.14E-14 2.00E-07 4.44E-07 6.14E-14
                               7.98E-06 1.90E-10
   6     5.00  559.000  271.1  7.78E-06 1.33E-05 5.56E-14 5.56E-14 3.32E-06 1.06E-06 6.67E-07 5.56E-14 1.53E-07 1.01E-06 5.56E-14
                               7.21E-06 2.00E-10
   7     6.00  492.000  264.4  7.02E-06 1.20E-05 5.01E-14 5.01E-14 3.00E-06 9.53E-07 6.02E-07 5.01E-14 1.13E-07 1.46E-06 5.01E-14
                               6.49E-06 2.07E-10
   8     7.00  432.000  257.8  6.32E-06 1.08E-05 4.52E-14 4.52E-14 2.70E-06 8.58E-07 5.42E-07 4.52E-14 7.88E-08 1.81E-06 4.52E-14
                               5.84E-06 2.10E-10
   9     8.00  378.000  251.1  5.68E-06 9.73E-06 4.06E-14 4.06E-14 2.42E-06 7.71E-07 4.87E-07 4.06E-14 5.03E-08 2.06E-06 4.06E-14
                               5.23E-06 2.09E-10
  10     9.00  329.000  244.4  5.07E-06 8.70E-06 3.63E-14 3.63E-14 2.16E-06 6.88E-07 4.35E-07 3.63E-14 4.38E-08 1.78E-06 3.63E-14
                               4.68E-06 2.09E-10
  11    10.00  286.000  237.8  4.52E-06 7.76E-06 3.24E-14 3.24E-14 1.93E-06 6.14E-07 3.89E-07 3.24E-14 3.81E-08 1.53E-06 3.24E-14
                               4.18E-06 2.06E-10
  12    11.00  247.000  230.9  4.02E-06 6.90E-06 2.88E-14 2.88E-14 1.72E-06 5.46E-07 3.46E-07 2.88E-14 3.29E-08 1.31E-06 2.88E-14
                               3.72E-06 2.01E-10
  13    12.00  213.000  224.4  3.56E-06 6.11E-06 2.56E-14 2.56E-14 1.52E-06 4.83E-07 3.07E-07 2.56E-14 2.84E-08 1.12E-06 2.56E-14
                               3.30E-06 1.94E-10
  14    13.00  182.000  217.8  3.04E-06 5.30E-06 2.25E-14 2.25E-14 1.33E-06 4.18E-07 2.67E-07 2.25E-14 1.80E-07 1.27E-06 2.25E-14
                               2.81E-06 9.92E-09
  15    14.00  156.000  211.1  2.61E-06 4.62E-06 1.99E-14 1.99E-14 1.16E-06 3.62E-07 2.34E-07 1.99E-14 2.97E-07 1.38E-06 1.99E-14
                               2.41E-06 1.74E-08
  16    15.00  132.000  204.5  2.21E-06 3.97E-06 1.74E-14 1.74E-14 1.00E-06 3.10E-07 2.02E-07 1.74E-14 3.79E-07 1.43E-06 1.74E-14
                               2.03E-06 2.27E-08
  17    16.00  111.000  197.8  1.86E-06 3.40E-06 1.51E-14 1.51E-14 8.65E-07 2.65E-07 1.74E-07 1.51E-14 4.34E-07 1.44E-06 1.51E-14
                               1.71E-06 2.63E-08
  18    17.00   93.700  195.6  1.45E-06 2.77E-06 1.29E-14 1.29E-14 7.18E-07 2.13E-07 1.44E-07 1.29E-14 1.31E-06 1.84E-06 1.29E-14
                               1.31E-06 1.13E-07
  19    18.00   78.900  199.6  1.08E-06 2.18E-06 1.07E-14 1.07E-14 5.76E-07 1.66E-07 1.16E-07 1.07E-14 1.86E-06 2.02E-06 1.07E-14
                               9.65E-07 1.69E-07
  20    19.00   66.600  203.5  8.02E-07 1.71E-06 8.82E-15 8.82E-15 4.63E-07 1.29E-07 9.29E-08 8.82E-15 2.18E-06 2.09E-06 8.82E-15
                               7.00E-07 2.02E-07
  21    20.00   56.500  207.5  5.88E-07 1.35E-06 7.34E-15 7.34E-15 3.73E-07 9.98E-08 7.48E-08 7.34E-15 2.35E-06 2.09E-06 7.34E-15
                               5.00E-07 2.19E-07
  22    21.00   48.000  211.5  4.20E-07 1.05E-06 6.12E-15 6.12E-15 2.99E-07 7.57E-08 5.97E-08 6.12E-15 2.81E-06 2.15E-06 6.12E-15
                               3.49E-07 2.53E-07
  23    22.00   40.900  215.4  2.92E-07 8.08E-07 5.12E-15 5.12E-15 2.40E-07 5.71E-08 4.76E-08 5.12E-15 3.07E-06 2.14E-06 5.12E-15
                               2.36E-07 2.71E-07
  24    23.00   35.000  217.8  1.97E-07 6.28E-07 4.33E-15 4.33E-15 1.95E-07 4.30E-08 3.84E-08 4.33E-15 3.20E-06 2.10E-06 4.33E-15
                               1.52E-07 2.79E-07
  25    24.00   30.000  220.0  1.25E-07 4.85E-07 3.67E-15 3.67E-15 1.58E-07 3.20E-08 3.09E-08 3.67E-15 3.23E-06 2.03E-06 3.67E-15
                               8.82E-08 2.80E-07
  26    25.00   25.700  222.2  8.50E-08 3.70E-07 3.12E-15 3.12E-15 1.27E-07 2.37E-08 2.48E-08 3.12E-15 3.03E-06 1.81E-06 3.12E-15
                               5.87E-08 2.40E-07
  27    30.00   12.200  233.1  5.50E-09 8.30E-08 1.41E-15 1.41E-15 4.27E-08 4.11E-09 7.95E-09 1.41E-15 1.61E-06 7.19E-07 1.41E-15
                               2.47E-09 7.78E-08
  28    35.00    6.000  243.9  1.32E-10 1.41E-08 6.63E-16 6.63E-16 1.37E-08 4.75E-10 2.42E-09 6.63E-16 3.47E-07 9.74E-08 6.63E-16
                               2.62E-11 7.17E-09
  29    40.00    3.050  254.8  5.97E-13 1.96E-09 3.23E-16 3.23E-16 4.48E-09 3.97E-11 7.48E-10 3.23E-16 1.38E-08 3.21E-09 3.23E-16
                               1.28E-14 6.87E-11
  30    45.00    1.590  265.6  1.48E-14 3.44E-10 1.61E-16 1.61E-16 1.67E-09 5.19E-12 2.61E-10 1.61E-16 2.71E-10 1.41E-10 1.61E-16
                               8.99E-17 6.35E-13
  31    50.00    0.854  271.0  5.06E-16 7.23E-11 8.49E-17 8.49E-17 7.45E-10 8.41E-13 1.06E-10 8.49E-17 3.96E-12 6.48E-12 8.49E-17
                               9.28E-19 5.34E-15
  32    70.00    0.058  219.7  3.62E-21 2.78E-13 7.11E-18 7.11E-18 5.11E-11 1.25E-15 4.16E-12 7.11E-18 5.15E-19 2.28E-16 7.11E-18
                               7.02E-26 5.83E-23
  33   100.00    0.000  191.5  1.26E-30 1.01E-18 4.07E-20 4.07E-20 7.28E-14 5.33E-22 8.66E-16 4.07E-20 3.29E-35 1.35E-31 4.07E-20
                               2.07E-38 0.00E+00


 CASE 3A: GIVEN H1,H2=SPACE,ANGLE



 TANGENT PATH WITH H1 =     70.000 AND ANGLE =    180.000 INTERSECTS THE EARTH

          H2 HAS BEEN RESET TO 0.0 AND LEN TO 0



 SLANT PATH PARAMETERS IN STANDARD FORM

          H1      =     70.000 KM
          H2      =      0.000 KM
          ANGLE   =    180.000 DEG
          PHI     =      0.000 DEG
          HMIN    =      0.000 KM
          LEN     =          0
1CALCULATION OF THE REFRACTED PATH THROUGH THE ATMOSPHERE


  I       ALTITUDE        THETA  DRANGE    RANGE    DBETA     BETA     PHI     DBEND  BENDING    PBAR    TBAR   RHOBAR
      FROM       TO
      (KM)      (KM)      (DEG)    (KM)     (KM)    (DEG)    (DEG)    (DEG)    (DEG)    (DEG)    (MB)    (K)  (GM CM-3)

          H2 TO H1

  1    0.000    1.000    0.000    1.000    1.000    0.000    0.000  180.000    0.000    0.000  958.317  297.50 1.12E-03
  2    1.000    2.000    0.000    1.000    2.000    0.000    0.000  180.000    0.000    0.000  854.330  291.50 1.02E-03
  3    2.000    3.000    0.000    1.000    3.000    0.000    0.000  180.000    0.000    0.000  759.895  286.49 9.23E-04
  4    3.000    4.000    0.000    1.000    4.000    0.000    0.000  180.000    0.000    0.000  673.837  281.15 8.34E-04
  5    4.000    5.000    0.000    1.000    5.000    0.000    0.000  180.000    0.000    0.000  595.849  274.45 7.56E-04
  6    5.000    6.000    0.000    1.000    6.000    0.000    0.000  180.000    0.000    0.000  525.360  267.75 6.83E-04
  7    6.000    7.000    0.000    1.000    7.000    0.000    0.000  180.000    0.000    0.000  461.874  261.10 6.16E-04
  8    7.000    8.000    0.000    1.000    8.000    0.000    0.000  180.000    0.000    0.000  404.882  254.46 5.54E-04
  9    8.000    9.000    0.000    1.000    9.000    0.000    0.000  180.000    0.000    0.000  353.390  247.76 4.96E-04
 10    9.000   10.000    0.000    1.000   10.000    0.000    0.000  180.000    0.000    0.000  307.402  241.11 4.44E-04
 11   10.000   11.000    0.000    1.000   11.000    0.000    0.000  180.000    0.000    0.000  266.404  234.36 3.95E-04
 12   11.000   12.000    0.000    1.000   12.000    0.000    0.000  180.000    0.000    0.000  229.919  227.66 3.51E-04
 13   12.000   13.000    0.000    1.000   13.000    0.000    0.000  180.000    0.000    0.000  197.423  221.11 3.11E-04
 14   13.000   14.000    0.000    1.000   14.000    0.000    0.000  180.000    0.000    0.000  168.932  214.46 2.74E-04
 15   14.000   15.000    0.000    1.000   15.000    0.000    0.000  180.000    0.000    0.000  143.937  207.82 2.41E-04
 16   15.000   16.000    0.000    1.000   16.000    0.000    0.000  180.000    0.000    0.000  121.442  201.17 2.10E-04
 17   16.000   17.000    0.000    1.000   17.000    0.000    0.000  180.000    0.000    0.000  102.334  196.69 1.81E-04
 18   17.000   18.000    0.000    1.000   18.000    0.000    0.000  180.000    0.000    0.000   86.325  197.49 1.52E-04
 19   18.000   19.000    0.000    1.000   19.000    0.000    0.000  180.000    0.000    0.000   72.770  201.44 1.26E-04
 20   19.000   20.000    0.000    1.000   20.000    0.000    0.000  180.000    0.000    0.000   61.566  205.39 1.04E-04
 21   20.000   21.000    0.000    1.000   21.000    0.000    0.000  180.000    0.000    0.000   52.264  209.39 8.67E-05
 22   21.000   22.000    0.000    1.000   22.000    0.000    0.000  180.000    0.000    0.000   44.461  213.35 7.24E-05
 23   22.000   23.000    0.000    1.000   23.000    0.000    0.000  180.000    0.000    0.000   37.955  216.52 6.09E-05
 24   23.000   24.000    0.000    1.000   24.000    0.000    0.000  180.000    0.000    0.000   32.504  218.83 5.16E-05
 25   24.000   25.000    0.000    1.000   25.000    0.000    0.000  180.000    0.000    0.000   27.854  221.03 4.38E-05
 26   25.000   30.000    0.000    5.000   30.000    0.000    0.000  180.000    0.000    0.000   19.003  226.85 2.78E-05
 27   30.000   35.000    0.000    5.000   35.000    0.000    0.000  180.000    0.000    0.000    9.123  237.75 1.28E-05
 28   35.000   40.000    0.000    5.000   40.000    0.000    0.000  180.000    0.000    0.000    4.536  248.62 6.11E-06
 29   40.000   45.000    0.000    5.000   45.000    0.000    0.000  180.000    0.000    0.000    2.325  259.50 3.01E-06
 30   45.000   50.000    0.000    5.000   50.000    0.000    0.000  180.000    0.000    0.000    1.223  267.96 1.54E-06
 31   50.000   70.000    0.000   20.000   70.000    0.000    0.000  180.000    0.000    0.000    0.445  254.14 4.06E-07




1CUMULATIVE ABSORBER AMOUNTS FOR THE PATH FROM H1 TO Z

  J     Z        TBAR     HNO3        O3 UV      CNTMSLF1   CNTMSLF2    CNTMFRN      O2
       (KM)       (K)   (ATM CM)    (ATM CM)    (MOL CM-2)  (MOL CM-2)  (MOL CM-2)(MOL CM-2)

  1   50.000   254.14   0.000E+00   9.998E-04   2.719E+08   3.162E+08   4.778E+13   1.312E+02
  2   45.000   267.96   0.000E+00   3.186E-03   9.939E+08   8.784E+08   1.720E+14   2.557E+02
  3   40.000   259.50   0.000E+00   1.022E-02   3.376E+09   3.293E+09   6.139E+14   4.994E+02
  4   35.000   248.62   0.000E+00   3.073E-02   1.127E+10   1.368E+10   2.249E+15   9.952E+02
  5   30.000   237.75   0.000E+00   7.762E-02   3.791E+10   5.679E+10   8.557E+15   2.039E+03
  6   25.000   226.85   0.000E+00   1.521E-01   1.259E+11   2.258E+11   3.351E+16   4.332E+03
  7   24.000   221.03   0.000E+00   1.684E-01   1.607E+11   2.982E+11   4.431E+16   5.060E+03
  8   23.000   218.83   0.000E+00   1.837E-01   2.037E+11   3.904E+11   5.846E+16   5.922E+03
  9   22.000   216.52   0.000E+00   1.972E-01   2.562E+11   5.063E+11   7.692E+16   6.946E+03
 10   21.000   213.35   0.000E+00   2.088E-01   3.239E+11   6.619E+11   1.018E+17   8.171E+03
 11   20.000   209.39   0.000E+00   2.195E-01   4.143E+11   8.793E+11   1.363E+17   9.652E+03
 12   19.000   205.39   0.000E+00   2.288E-01   5.423E+11   1.202E+12   1.856E+17   1.145E+04
 13   18.000   201.44   0.000E+00   2.356E-01   7.398E+11   1.720E+12   2.593E+17   1.364E+04
 14   17.000   197.49   0.000E+00   2.399E-01   1.062E+12   2.602E+12   3.733E+17   1.634E+04
 15   16.000   196.69   0.000E+00   2.426E-01   1.559E+12   3.974E+12   5.419E+17   1.960E+04
 16   15.000   201.17   0.000E+00   2.448E-01   2.506E+12   6.468E+12   8.109E+17   2.345E+04
 17   14.000   207.82   0.000E+00   2.469E-01   5.156E+12   1.296E+13   1.325E+18   2.795E+04
 18   13.000   214.46   0.000E+00   2.490E-01   1.366E+13   3.222E+13   2.371E+18   3.316E+04
 19   12.000   221.11   0.000E+00   2.511E-01   7.439E+13   1.585E+14   5.431E+18   3.918E+04
 20   11.000   227.66   0.000E+00   2.530E-01   6.168E+14   1.188E+15   1.589E+19   4.614E+04
 21   10.000   234.36   0.000E+00   2.549E-01   5.196E+15   9.029E+15   5.000E+19   5.416E+04
 22    9.000   241.11   0.000E+00   2.567E-01   3.556E+16   5.532E+16   1.498E+20   6.337E+04
 23    8.000   247.76   0.000E+00   2.585E-01   1.819E+17   2.515E+17   3.966E+20   7.395E+04
 24    7.000   254.46   0.000E+00   2.604E-01   7.422E+17   8.980E+17   9.374E+20   8.609E+04
 25    6.000   261.10   0.000E+00   2.623E-01   2.633E+18   2.731E+18   2.043E+21   9.998E+04
 26    5.000   267.75   0.000E+00   2.644E-01   8.644E+18   7.448E+18   4.229E+21   1.159E+05
 27    4.000   274.45   0.000E+00   2.665E-01   2.376E+19   1.650E+19   8.081E+21   1.340E+05
 28    3.000   281.15   0.000E+00   2.688E-01   7.454E+19   3.744E+19   1.574E+22   1.547E+05
 29    2.000   286.49   0.000E+00   2.712E-01   2.856E+20   9.319E+19   3.300E+22   1.785E+05
 30    1.000   291.50   0.000E+00   2.738E-01   8.369E+20   1.621E+20   6.401E+22   2.058E+05
 31    0.000   297.50   0.000E+00   2.764E-01   1.969E+21   1.151E+20   1.125E+23   2.370E+05



1 J     Z       N2 CONT    MOL SCAT       AER 1       AER 2       AER 3       AER 4       CIRRUS
       (KM)

  1   50.000   2.654E-06   6.279E-03   0.000E+00   0.000E+00   0.000E+00   0.000E+00   0.000E+00
  2   45.000   9.390E-06   1.224E-02   0.000E+00   0.000E+00   0.000E+00   0.000E+00   0.000E+00
  3   40.000   3.526E-05   2.388E-02   0.000E+00   0.000E+00   0.000E+00   0.000E+00   0.000E+00
  4   35.000   1.422E-04   4.751E-02   0.000E+00   0.000E+00   0.000E+00   0.000E+00   0.000E+00
  5   30.000   6.139E-04   9.704E-02   0.000E+00   0.000E+00   0.000E+00   0.000E+00   0.000E+00
  6   25.000   2.852E-03   2.047E-01   0.000E+00   0.000E+00   0.000E+00   0.000E+00   0.000E+00
  7   24.000   3.910E-03   2.386E-01   0.000E+00   0.000E+00   0.000E+00   0.000E+00   0.000E+00
  8   23.000   5.379E-03   2.786E-01   0.000E+00   0.000E+00   0.000E+00   0.000E+00   0.000E+00
  9   22.000   7.425E-03   3.257E-01   0.000E+00   0.000E+00   0.000E+00   0.000E+00   0.000E+00
 10   21.000   1.032E-02   3.818E-01   0.000E+00   0.000E+00   0.000E+00   0.000E+00   0.000E+00
 11   20.000   1.446E-02   4.489E-01   0.000E+00   0.000E+00   0.000E+00   0.000E+00   0.000E+00
 12   19.000   2.045E-02   5.295E-01   0.000E+00   0.000E+00   0.000E+00   0.000E+00   0.000E+00
 13   18.000   2.913E-02   6.266E-01   0.000E+00   0.000E+00   0.000E+00   0.000E+00   0.000E+00
 14   17.000   4.185E-02   7.441E-01   0.000E+00   0.000E+00   0.000E+00   0.000E+00   0.000E+00
 15   16.000   5.987E-02   8.841E-01   0.000E+00   0.000E+00   0.000E+00   0.000E+00   0.000E+00
 16   15.000   8.412E-02   1.046E+00   0.000E+00   0.000E+00   0.000E+00   0.000E+00   0.000E+00
 17   14.000   1.161E-01   1.233E+00   0.000E+00   0.000E+00   0.000E+00   0.000E+00   0.000E+00
 18   13.000   1.574E-01   1.445E+00   0.000E+00   0.000E+00   0.000E+00   0.000E+00   0.000E+00
 19   12.000   2.105E-01   1.685E+00   0.000E+00   0.000E+00   0.000E+00   0.000E+00   0.000E+00
 20   11.000   2.784E-01   1.957E+00   0.000E+00   0.000E+00   0.000E+00   0.000E+00   0.000E+00
 21   10.000   3.644E-01   2.263E+00   0.000E+00   0.000E+00   0.000E+00   0.000E+00   0.000E+00
 22    9.000   4.727E-01   2.606E+00   0.000E+00   0.000E+00   0.000E+00   0.000E+00   0.000E+00
 23    8.000   6.083E-01   2.990E+00   0.000E+00   0.000E+00   0.000E+00   0.000E+00   0.000E+00
 24    7.000   7.769E-01   3.419E+00   0.000E+00   0.000E+00   0.000E+00   0.000E+00   0.000E+00
 25    6.000   9.854E-01   3.895E+00   0.000E+00   0.000E+00   0.000E+00   0.000E+00   0.000E+00
 26    5.000   1.242E+00   4.423E+00   0.000E+00   0.000E+00   0.000E+00   0.000E+00   0.000E+00
 27    4.000   1.556E+00   5.008E+00   0.000E+00   0.000E+00   0.000E+00   0.000E+00   0.000E+00
 28    3.000   1.939E+00   5.654E+00   0.000E+00   0.000E+00   0.000E+00   0.000E+00   0.000E+00
 29    2.000   2.408E+00   6.368E+00   0.000E+00   0.000E+00   0.000E+00   0.000E+00   0.000E+00
 30    1.000   2.980E+00   7.157E+00   0.000E+00   0.000E+00   0.000E+00   0.000E+00   0.000E+00
 31    0.000   3.672E+00   8.025E+00   0.000E+00   0.000E+00   0.000E+00   0.000E+00   0.000E+00



1  J    Z       H2O       O3        CO2       CO        CH4       N2O       O2        NH3       NO        NO2       SO2
      (KM)    (                                                      ATM CM                                             )

   1   50.00  3.45E-03  1.00E-03  5.02E-01  0.00E+00  1.19E-04  0.00E+00  1.31E+02  0.00E+00  0.00E+00  0.00E+00  0.00E+00
   2   45.00  6.92E-03  3.19E-03  9.78E-01  0.00E+00  2.90E-04  0.00E+00  2.56E+02  0.00E+00  0.00E+00  0.00E+00  0.00E+00
   3   40.00  1.32E-02  1.02E-02  1.91E+00  0.00E+00  8.34E-04  0.00E+00  4.99E+02  0.00E+00  0.00E+00  0.00E+00  0.00E+00
   4   35.00  2.47E-02  3.07E-02  3.80E+00  0.00E+00  2.40E-03  0.00E+00  9.92E+02  0.00E+00  0.00E+00  0.00E+00  0.00E+00
   5   30.00  4.58E-02  7.76E-02  7.76E+00  0.00E+00  6.54E-03  0.00E+00  2.03E+03  0.00E+00  0.00E+00  0.00E+00  0.00E+00
   6   25.00  8.41E-02  1.52E-01  1.64E+01  0.00E+00  1.72E-02  0.00E+00  4.28E+03  0.00E+00  0.00E+00  0.00E+00  0.00E+00
   7   24.00  9.50E-02  1.68E-01  1.91E+01  0.00E+00  2.09E-02  0.00E+00  4.98E+03  0.00E+00  0.00E+00  0.00E+00  0.00E+00
   8   23.00  1.07E-01  1.84E-01  2.23E+01  0.00E+00  2.55E-02  0.00E+00  5.82E+03  0.00E+00  0.00E+00  0.00E+00  0.00E+00
   9   22.00  1.21E-01  1.97E-01  2.60E+01  0.00E+00  3.13E-02  0.00E+00  6.80E+03  0.00E+00  0.00E+00  0.00E+00  0.00E+00
  10   21.00  1.36E-01  2.09E-01  3.05E+01  0.00E+00  3.87E-02  0.00E+00  7.97E+03  0.00E+00  0.00E+00  0.00E+00  0.00E+00
  11   20.00  1.53E-01  2.19E-01  3.59E+01  0.00E+00  4.80E-02  0.00E+00  9.38E+03  0.00E+00  0.00E+00  0.00E+00  0.00E+00
  12   19.00  1.74E-01  2.29E-01  4.23E+01  0.00E+00  5.97E-02  0.00E+00  1.11E+04  0.00E+00  0.00E+00  0.00E+00  0.00E+00
  13   18.00  2.00E-01  2.36E-01  5.01E+01  0.00E+00  7.43E-02  0.00E+00  1.31E+04  0.00E+00  0.00E+00  0.00E+00  0.00E+00
  14   17.00  2.34E-01  2.40E-01  5.95E+01  0.00E+00  9.23E-02  0.00E+00  1.55E+04  0.00E+00  0.00E+00  0.00E+00  0.00E+00
  15   16.00  2.75E-01  2.43E-01  7.07E+01  0.00E+00  1.14E-01  0.00E+00  1.85E+04  0.00E+00  0.00E+00  0.00E+00  0.00E+00
  16   15.00  3.31E-01  2.45E-01  8.37E+01  0.00E+00  1.40E-01  0.00E+00  2.19E+04  0.00E+00  0.00E+00  0.00E+00  0.00E+00
  17   14.00  4.25E-01  2.47E-01  9.86E+01  0.00E+00  1.70E-01  0.00E+00  2.57E+04  0.00E+00  0.00E+00  0.00E+00  0.00E+00
  18   13.00  5.94E-01  2.49E-01  1.16E+02  0.00E+00  2.05E-01  0.00E+00  3.02E+04  0.00E+00  0.00E+00  0.00E+00  0.00E+00
  19   12.00  1.03E+00  2.51E-01  1.35E+02  0.00E+00  2.45E-01  0.00E+00  3.52E+04  0.00E+00  0.00E+00  0.00E+00  0.00E+00
  20   11.00  2.33E+00  2.53E-01  1.56E+02  0.00E+00  2.90E-01  0.00E+00  4.09E+04  0.00E+00  0.00E+00  0.00E+00  0.00E+00
  21   10.00  6.12E+00  2.55E-01  1.81E+02  0.00E+00  3.41E-01  0.00E+00  4.73E+04  0.00E+00  0.00E+00  0.00E+00  0.00E+00
  22    9.00  1.60E+01  2.57E-01  2.08E+02  0.00E+00  3.99E-01  0.00E+00  5.44E+04  0.00E+00  0.00E+00  0.00E+00  0.00E+00
  23    8.00  3.80E+01  2.59E-01  2.39E+02  0.00E+00  4.64E-01  0.00E+00  6.25E+04  0.00E+00  0.00E+00  0.00E+00  0.00E+00
  24    7.00  8.11E+01  2.60E-01  2.73E+02  0.00E+00  5.37E-01  0.00E+00  7.14E+04  0.00E+00  0.00E+00  0.00E+00  0.00E+00
  25    6.00  1.61E+02  2.62E-01  3.11E+02  0.00E+00  6.18E-01  0.00E+00  8.14E+04  0.00E+00  0.00E+00  0.00E+00  0.00E+00
  26    5.00  3.02E+02  2.64E-01  3.54E+02  0.00E+00  7.08E-01  0.00E+00  9.24E+04  0.00E+00  0.00E+00  0.00E+00  0.00E+00
  27    4.00  5.29E+02  2.67E-01  4.00E+02  0.00E+00  8.07E-01  0.00E+00  1.05E+05  0.00E+00  0.00E+00  0.00E+00  0.00E+00
  28    3.00  9.37E+02  2.69E-01  4.52E+02  0.00E+00  9.17E-01  0.00E+00  1.18E+05  0.00E+00  0.00E+00  0.00E+00  0.00E+00
  29    2.00  1.77E+03  2.71E-01  5.09E+02  0.00E+00  1.04E+00  0.00E+00  1.33E+05  0.00E+00  0.00E+00  0.00E+00  0.00E+00
  30    1.00  3.14E+03  2.74E-01  5.72E+02  0.00E+00  1.17E+00  0.00E+00  1.49E+05  0.00E+00  0.00E+00  0.00E+00  0.00E+00
  31    0.00  5.10E+03  2.76E-01  6.42E+02  0.00E+00  1.32E+00  0.00E+00  1.68E+05  0.00E+00  0.00E+00  0.00E+00  0.00E+00



1  J    Z      CFC-11    CFC-12    CFC-13    CFC-14    CFC-22    CFC-113   CFC-114   CFC-115   CLONO2     HNO4     CHCL2F 
                CCL4      N2O5  
      (KM)    (                                                   ATM CM                                                )

   1   50.00  8.55E-16  2.59E-10  6.27E-16  6.27E-16  5.18E-09  2.58E-12  6.30E-10  6.27E-16  5.00E-12  1.26E-11  6.27E-16
              1.13E-18  5.83E-15
   2   45.00  2.20E-14  1.13E-09  1.22E-15  1.22E-15  1.09E-08  1.45E-11  1.49E-09  1.22E-15  3.21E-10  2.31E-10  1.22E-15
              9.84E-17  6.65E-13
   3   40.00  8.09E-13  5.78E-09  2.39E-15  2.39E-15  2.52E-08  9.93E-11  3.80E-09  2.39E-15  1.75E-08  5.14E-09  2.39E-15
              1.29E-14  7.33E-11
   4   35.00  1.22E-10  3.66E-08  4.75E-15  4.75E-15  6.65E-08  9.76E-10  1.09E-08  4.75E-15  5.34E-07  1.43E-07  4.75E-15
              1.72E-11  7.71E-09
   5   30.00  7.31E-09  2.31E-07  9.70E-15  9.70E-15  1.94E-07  9.40E-09  3.42E-08  9.70E-15  4.65E-06  1.70E-06  9.70E-15
              2.71E-09  1.56E-07
   6   25.00  1.53E-07  1.19E-06  2.05E-14  2.05E-14  5.81E-07  6.53E-08  1.08E-07  2.05E-14  1.59E-05  7.61E-06  2.05E-14
              9.15E-08  8.76E-07
   7   24.00  2.56E-07  1.62E-06  2.38E-14  2.38E-14  7.23E-07  9.29E-08  1.36E-07  2.38E-14  1.90E-05  9.52E-06  2.38E-14
              1.64E-07  1.14E-06
   8   23.00  4.15E-07  2.17E-06  2.78E-14  2.78E-14  8.99E-07  1.30E-07  1.70E-07  2.78E-14  2.22E-05  1.16E-05  2.78E-14
              2.81E-07  1.41E-06
   9   22.00  6.56E-07  2.88E-06  3.25E-14  3.25E-14  1.12E-06  1.80E-07  2.13E-07  3.25E-14  2.54E-05  1.37E-05  3.25E-14
              4.72E-07  1.69E-06
  10   21.00  1.01E-06  3.81E-06  3.82E-14  3.82E-14  1.38E-06  2.46E-07  2.67E-07  3.82E-14  2.83E-05  1.59E-05  3.82E-14
              7.61E-07  1.95E-06
  11   20.00  1.51E-06  5.00E-06  4.49E-14  4.49E-14  1.72E-06  3.33E-07  3.34E-07  4.49E-14  3.09E-05  1.80E-05  4.49E-14
              1.18E-06  2.19E-06
  12   19.00  2.20E-06  6.52E-06  5.29E-14  5.29E-14  2.14E-06  4.47E-07  4.17E-07  5.29E-14  3.31E-05  2.01E-05  5.29E-14
              1.78E-06  2.40E-06
  13   18.00  3.13E-06  8.46E-06  6.26E-14  6.26E-14  2.65E-06  5.93E-07  5.21E-07  6.26E-14  3.52E-05  2.21E-05  6.26E-14
              2.60E-06  2.58E-06
  14   17.00  4.39E-06  1.09E-05  7.44E-14  7.44E-14  3.30E-06  7.81E-07  6.50E-07  7.44E-14  3.67E-05  2.41E-05  7.44E-14
              3.73E-06  2.73E-06
  15   16.00  6.04E-06  1.40E-05  8.83E-14  8.83E-14  4.09E-06  1.02E-06  8.09E-07  8.83E-14  3.76E-05  2.57E-05  8.83E-14
              5.23E-06  2.80E-06
  16   15.00  8.06E-06  1.77E-05  1.05E-13  1.05E-13  5.02E-06  1.31E-06  9.97E-07  1.05E-13  3.80E-05  2.71E-05  1.05E-13
              7.10E-06  2.82E-06
  17   14.00  1.05E-05  2.20E-05  1.23E-13  1.23E-13  6.10E-06  1.64E-06  1.21E-06  1.23E-13  3.84E-05  2.85E-05  1.23E-13
              9.32E-06  2.84E-06
  18   13.00  1.33E-05  2.69E-05  1.44E-13  1.44E-13  7.34E-06  2.03E-06  1.46E-06  1.44E-13  3.86E-05  2.99E-05  1.44E-13
              1.19E-05  2.85E-06
  19   12.00  1.66E-05  3.26E-05  1.68E-13  1.68E-13  8.77E-06  2.48E-06  1.75E-06  1.68E-13  3.87E-05  3.11E-05  1.68E-13
              1.50E-05  2.86E-06
  20   11.00  2.04E-05  3.91E-05  1.96E-13  1.96E-13  1.04E-05  3.00E-06  2.08E-06  1.96E-13  3.87E-05  3.23E-05  1.96E-13
              1.85E-05  2.86E-06
  21   10.00  2.46E-05  4.64E-05  2.26E-13  2.26E-13  1.22E-05  3.57E-06  2.44E-06  2.26E-13  3.88E-05  3.37E-05  2.26E-13
              2.24E-05  2.86E-06
  22    9.00  2.94E-05  5.47E-05  2.60E-13  2.60E-13  1.42E-05  4.22E-06  2.86E-06  2.60E-13  3.88E-05  3.54E-05  2.60E-13
              2.68E-05  2.86E-06
  23    8.00  3.48E-05  6.39E-05  2.99E-13  2.99E-13  1.65E-05  4.95E-06  3.32E-06  2.99E-13  3.89E-05  3.73E-05  2.99E-13
              3.18E-05  2.86E-06
  24    7.00  4.08E-05  7.41E-05  3.42E-13  3.42E-13  1.91E-05  5.77E-06  3.83E-06  3.42E-13  3.89E-05  3.92E-05  3.42E-13
              3.73E-05  2.86E-06
  25    6.00  4.74E-05  8.56E-05  3.89E-13  3.89E-13  2.19E-05  6.67E-06  4.40E-06  3.89E-13  3.90E-05  4.08E-05  3.89E-13
              4.35E-05  2.86E-06
  26    5.00  5.48E-05  9.82E-05  4.42E-13  4.42E-13  2.51E-05  7.67E-06  5.04E-06  4.42E-13  3.91E-05  4.21E-05  4.42E-13
              5.03E-05  2.86E-06
  27    4.00  6.30E-05  1.12E-04  5.00E-13  5.00E-13  2.86E-05  8.78E-06  5.74E-06  5.00E-13  3.93E-05  4.28E-05  5.00E-13
              5.79E-05  2.86E-06
  28    3.00  7.20E-05  1.28E-04  5.65E-13  5.65E-13  3.24E-05  1.00E-05  6.51E-06  5.65E-13  3.96E-05  4.32E-05  5.65E-13
              6.63E-05  2.86E-06
  29    2.00  8.20E-05  1.45E-04  6.36E-13  6.36E-13  3.67E-05  1.14E-05  7.37E-06  6.36E-13  3.99E-05  4.35E-05  6.36E-13
              7.56E-05  2.86E-06
  30    1.00  9.31E-05  1.64E-04  7.15E-13  7.15E-13  4.14E-05  1.29E-05  8.31E-06  7.15E-13  4.02E-05  4.38E-05  7.15E-13
              8.58E-05  2.86E-06
  31    0.00  1.05E-04  1.85E-04  8.02E-13  8.02E-13  4.66E-05  1.45E-05  9.35E-06  8.02E-13  4.07E-05  4.39E-05  8.02E-13
              9.71E-05  2.86E-06


0SUMMARY OF THE GEOMETRY CALCULATION

          H1      =     70.000 KM
          H2      =      0.000 KM
          ANGLE   =    180.000 DEG
          RANGE   =     70.000 KM
          BETA    =      0.000 DEG
          PHI     =      0.000 DEG
          HMIN    =      0.000 KM
          BENDING =      0.000 DEG
          LEN     =          0




1EQUIVALENT SEA LEVEL TOTAL ABSORBER AMOUNTS

                 HNO3      O3 UV       CNTMSLF1    CNTMSLF2   CNTMFRN
               (ATM CM)   (ATM CM)     (MOL CM-2)  (MOL CM-2)  (MOL CM-2)  (MOL CM-2)

             0.000E+00   2.764E-01   1.969E+21   1.151E+20   1.125E+23


              N2 CONT    MOL SCAT       AER 1       AER 2       AER 3       AER 4     CIRRUS      MEAN RH
                                                                                                  (PRCNT)

             3.672E+00   8.025E+00   0.000E+00   0.000E+00   0.000E+00   0.000E+00   0.000E+00        0.00


                 H2O        O3          CO2         CO          CH4         N2O          O2
               (                                        ATM CM                            )

             5.102E+03   2.764E-01   6.416E+02   0.000E+00   1.319E+00   0.000E+00   1.676E+05

                 NH3        NO          NO2         SO2
                 (               ATM CM               )

             0.000E+00   0.000E+00   0.000E+00   0.000E+00

             CFC-11      CFC-12      CFC-13      CFC-14      CFC-22      CFC-113     CFC-114
                 (                                      ATM CM                            )

             1.052E-04   1.846E-04   8.019E-13   8.019E-13   4.665E-05   1.451E-05   9.354E-06

             CFC-115     CLONO2       HNO4       CHCL2F       CCL4        N2O5  
                 (                                      ATM CM                            )

             8.019E-13   4.070E-05   4.388E-05   8.019E-13   9.712E-05   2.861E-06
  iv           -5
  iv            0
1                                             RADIANCE(WATTS/CM2-STER-XXX)
0  FREQ   WAVLEN    PATH THERMAL      SURFACE EMISSION    SURFACE REFLECTED     TOTAL RADIANCE   INTEGRAL    TOTAL
  (CM-1) (MICRN)    (CM-1)   (MICRN)    (CM-1)   (MICRN)    (CM-1)   (MICRN)    (CM-1)   (MICRN)    (CM-1)   TRANS

      2. 4999.998  9.70E-10  3.88E-13  2.24E-10  8.94E-14  0.00E+00  0.00E+00  1.19E-09  4.77E-13  1.19E-09  0.22050
      4. 2500.000  3.48E-09  5.56E-12  5.01E-10  8.01E-13  0.00E+00  0.00E+00  3.98E-09  6.36E-12  9.15E-09  0.13866
      6. 1666.666  8.14E-09  2.93E-11  3.64E-10  1.31E-12  0.00E+00  0.00E+00  8.51E-09  3.06E-11  2.62E-08  0.05613
      8. 1250.000  1.46E-08  9.33E-11  2.14E-10  1.37E-12  0.00E+00  0.00E+00  1.48E-08  9.47E-11  5.57E-08  0.01546
     10. 1000.000  2.22E-08  2.22E-10  6.92E-11  6.92E-13  0.00E+00  0.00E+00  2.23E-08  2.23E-10  1.00E-07  0.00406
     12.  833.333  3.06E-08  4.40E-10  8.84E-13  1.27E-14  0.00E+00  0.00E+00  3.06E-08  4.40E-10  1.62E-07  0.00004
     14.  714.286  4.01E-08  7.86E-10  1.25E-16  2.44E-18  0.00E+00  0.00E+00  4.01E-08  7.86E-10  2.42E-07  0.00000
     16.  625.000  5.10E-08  1.31E-09  7.85E-21  2.01E-22  0.00E+00  0.00E+00  5.10E-08  1.31E-09  3.44E-07  0.00000
     18.  555.555  6.15E-08  1.99E-09  2.56E-19  8.30E-21  0.00E+00  0.00E+00  6.15E-08  1.99E-09  4.67E-07  0.00000
     20.  500.000  7.66E-08  3.07E-09  2.56E-19  1.02E-20  0.00E+00  0.00E+00  7.66E-08  3.07E-09  6.20E-07  0.00000
     22.  454.545  9.55E-08  4.62E-09  9.06E-33  4.39E-34  0.00E+00  0.00E+00  9.55E-08  4.62E-09  8.11E-07  0.00000
     24.  416.667  1.09E-07  6.27E-09  4.69E-30  2.70E-31  0.00E+00  0.00E+00  1.09E-07  6.27E-09  1.03E-06  0.00000
     26.  384.615  1.26E-07  8.50E-09  4.69E-30  3.17E-31  0.00E+00  0.00E+00  1.26E-07  8.50E-09  1.28E-06  0.00000
     28.  357.143  1.51E-07  1.18E-08  1.99E-38  1.56E-39  0.00E+00  0.00E+00  1.51E-07  1.18E-08  1.58E-06  0.00000
     30.  333.333  1.71E-07  1.54E-08  1.13E-38  1.02E-39  0.00E+00  0.00E+00  1.71E-07  1.54E-08  1.92E-06  0.00000
     32.  312.500  1.85E-07  1.90E-08  0.00E+00  0.00E+00  0.00E+00  0.00E+00  1.85E-07  1.90E-08  2.29E-06  0.00000
     34.  294.118  2.06E-07  2.38E-08  0.00E+00  0.00E+00  0.00E+00  0.00E+00  2.06E-07  2.38E-08  2.70E-06  0.00000
     36.  277.778  2.21E-07  2.86E-08  0.00E+00  0.00E+00  0.00E+00  0.00E+00  2.21E-07  2.86E-08  3.15E-06  0.00000
     38.  263.158  2.36E-07  3.40E-08  0.00E+00  0.00E+00  0.00E+00  0.00E+00  2.36E-07  3.40E-08  3.62E-06  0.00000
     40.  250.000  2.64E-07  4.23E-08  0.00E+00  0.00E+00  0.00E+00  0.00E+00  2.64E-07  4.23E-08  4.15E-06  0.00000
     42.  238.095  3.05E-07  5.37E-08  0.00E+00  0.00E+00  0.00E+00  0.00E+00  3.05E-07  5.37E-08  4.76E-06  0.00000
     44.  227.273  3.40E-07  6.58E-08  0.00E+00  0.00E+00  0.00E+00  0.00E+00  3.40E-07  6.58E-08  5.44E-06  0.00000
     46.  217.391  3.61E-07  7.64E-08  0.00E+00  0.00E+00  0.00E+00  0.00E+00  3.61E-07  7.64E-08  6.16E-06  0.00000
     48.  208.333  3.87E-07  8.91E-08  0.00E+00  0.00E+00  0.00E+00  0.00E+00  3.87E-07  8.91E-08  6.93E-06  0.00000
     50.  200.000  4.27E-07  1.07E-07  0.00E+00  0.00E+00  0.00E+00  0.00E+00  4.27E-07  1.07E-07  7.79E-06  0.00000
     52.  192.308  4.49E-07  1.22E-07  0.00E+00  0.00E+00  0.00E+00  0.00E+00  4.49E-07  1.22E-07  8.69E-06  0.00000
     54.  185.185  4.58E-07  1.34E-07  0.00E+00  0.00E+00  0.00E+00  0.00E+00  4.58E-07  1.34E-07  9.60E-06  0.00000
     56.  178.571  4.72E-07  1.48E-07  0.00E+00  0.00E+00  0.00E+00  0.00E+00  4.72E-07  1.48E-07  1.05E-05  0.00000
     58.  172.414  5.13E-07  1.73E-07  0.00E+00  0.00E+00  0.00E+00  0.00E+00  5.13E-07  1.73E-07  1.16E-05  0.00000
     60.  166.667  5.61E-07  2.02E-07  0.00E+00  0.00E+00  0.00E+00  0.00E+00  5.61E-07  2.02E-07  1.27E-05  0.00000
     62.  161.290  5.96E-07  2.29E-07  0.00E+00  0.00E+00  0.00E+00  0.00E+00  5.96E-07  2.29E-07  1.39E-05  0.00000
     64.  156.250  6.33E-07  2.59E-07  0.00E+00  0.00E+00  0.00E+00  0.00E+00  6.33E-07  2.59E-07  1.52E-05  0.00000
     66.  151.515  6.87E-07  2.99E-07  0.00E+00  0.00E+00  0.00E+00  0.00E+00  6.87E-07  2.99E-07  1.65E-05  0.00000
     68.  147.059  7.13E-07  3.30E-07  0.00E+00  0.00E+00  0.00E+00  0.00E+00  7.13E-07  3.30E-07  1.80E-05  0.00000
     70.  142.857  7.45E-07  3.65E-07  0.00E+00  0.00E+00  0.00E+00  0.00E+00  7.45E-07  3.65E-07  1.94E-05  0.00000
     72.  138.889  7.57E-07  3.92E-07  0.00E+00  0.00E+00  0.00E+00  0.00E+00  7.57E-07  3.92E-07  2.10E-05  0.00000
     74.  135.135  7.82E-07  4.28E-07  0.00E+00  0.00E+00  0.00E+00  0.00E+00  7.82E-07  4.28E-07  2.25E-05  0.00000
     76.  131.579  8.38E-07  4.84E-07  0.00E+00  0.00E+00  0.00E+00  0.00E+00  8.38E-07  4.84E-07  2.42E-05  0.00000
     78.  128.205  8.77E-07  5.34E-07  0.00E+00  0.00E+00  0.00E+00  0.00E+00  8.77E-07  5.34E-07  2.59E-05  0.00000
     80.  125.000  9.06E-07  5.80E-07  0.00E+00  0.00E+00  0.00E+00  0.00E+00  9.06E-07  5.80E-07  2.78E-05  0.00000
     82.  121.951  9.63E-07  6.48E-07  0.00E+00  0.00E+00  0.00E+00  0.00E+00  9.63E-07  6.48E-07  2.97E-05  0.00000
     84.  119.048  1.04E-06  7.32E-07  0.00E+00  0.00E+00  0.00E+00  0.00E+00  1.04E-06  7.32E-07  3.18E-05  0.00000
     86.  116.279  1.06E-06  7.86E-07  0.00E+00  0.00E+00  0.00E+00  0.00E+00  1.06E-06  7.86E-07  3.39E-05  0.00000
     88.  113.636  1.05E-06  8.15E-07  0.00E+00  0.00E+00  0.00E+00  0.00E+00  1.05E-06  8.15E-07  3.60E-05  0.00000
     90.  111.111  1.10E-06  8.92E-07  0.00E+00  0.00E+00  0.00E+00  0.00E+00  1.10E-06  8.92E-07  3.82E-05  0.00000
     92.  108.696  1.14E-06  9.65E-07  0.00E+00  0.00E+00  0.00E+00  0.00E+00  1.14E-06  9.65E-07  4.05E-05  0.00000
     94.  106.383  1.20E-06  1.06E-06  0.00E+00  0.00E+00  0.00E+00  0.00E+00  1.20E-06  1.06E-06  4.29E-05  0.00000
     96.  104.167  1.26E-06  1.16E-06  0.00E+00  0.00E+00  0.00E+00  0.00E+00  1.26E-06  1.16E-06  4.54E-05  0.00000
     98.  102.041  1.28E-06  1.23E-06  0.00E+00  0.00E+00  0.00E+00  0.00E+00  1.28E-06  1.23E-06  4.79E-05  0.00000
    100.  100.000  1.28E-06  1.28E-06  0.00E+00  0.00E+00  0.00E+00  0.00E+00  1.28E-06  1.28E-06  5.05E-05  0.00000
  iv          105
1                                             RADIANCE(WATTS/CM2-STER-XXX)
0  FREQ   WAVLEN    PATH THERMAL      SURFACE EMISSION    SURFACE REFLECTED     TOTAL RADIANCE   INTEGRAL    TOTAL
  (CM-1) (MICRN)    (CM-1)   (MICRN)    (CM-1)   (MICRN)    (CM-1)   (MICRN)    (CM-1)   (MICRN)    (CM-1)   TRANS

    102.   98.039  1.36E-06  1.41E-06  0.00E+00  0.00E+00  0.00E+00  0.00E+00  1.36E-06  1.41E-06  5.32E-05  0.00000
    104.   96.154  1.40E-06  1.52E-06  0.00E+00  0.00E+00  0.00E+00  0.00E+00  1.40E-06  1.52E-06  5.60E-05  0.00000
    106.   94.340  1.44E-06  1.61E-06  0.00E+00  0.00E+00  0.00E+00  0.00E+00  1.44E-06  1.61E-06  5.89E-05  0.00000
    108.   92.593  1.55E-06  1.81E-06  0.00E+00  0.00E+00  0.00E+00  0.00E+00  1.55E-06  1.81E-06  6.20E-05  0.00000
    110.   90.909  1.59E-06  1.92E-06  0.00E+00  0.00E+00  0.00E+00  0.00E+00  1.59E-06  1.92E-06  6.52E-05  0.00000
    112.   89.286  1.64E-06  2.06E-06  0.00E+00  0.00E+00  0.00E+00  0.00E+00  1.64E-06  2.06E-06  6.84E-05  0.00000
    114.   87.719  1.77E-06  2.30E-06  0.00E+00  0.00E+00  0.00E+00  0.00E+00  1.77E-06  2.30E-06  7.20E-05  0.00000
    116.   86.207  1.80E-06  2.43E-06  0.00E+00  0.00E+00  0.00E+00  0.00E+00  1.80E-06  2.43E-06  7.56E-05  0.00000
    118.   84.746  1.79E-06  2.49E-06  0.00E+00  0.00E+00  0.00E+00  0.00E+00  1.79E-06  2.49E-06  7.92E-05  0.00000
    120.   83.333  1.77E-06  2.54E-06  0.00E+00  0.00E+00  0.00E+00  0.00E+00  1.77E-06  2.54E-06  8.27E-05  0.00000
    122.   81.967  1.79E-06  2.67E-06  0.00E+00  0.00E+00  0.00E+00  0.00E+00  1.79E-06  2.67E-06  8.63E-05  0.00000
    124.   80.645  1.90E-06  2.93E-06  0.00E+00  0.00E+00  0.00E+00  0.00E+00  1.90E-06  2.93E-06  9.01E-05  0.00000
    126.   79.365  1.90E-06  3.02E-06  0.00E+00  0.00E+00  0.00E+00  0.00E+00  1.90E-06  3.02E-06  9.39E-05  0.00000
    128.   78.125  1.98E-06  3.24E-06  0.00E+00  0.00E+00  0.00E+00  0.00E+00  1.98E-06  3.24E-06  9.78E-05  0.00000
    130.   76.923  2.07E-06  3.50E-06  0.00E+00  0.00E+00  0.00E+00  0.00E+00  2.07E-06  3.50E-06  1.02E-04  0.00000
    132.   75.758  2.03E-06  3.53E-06  0.00E+00  0.00E+00  0.00E+00  0.00E+00  2.03E-06  3.53E-06  1.06E-04  0.00000
    134.   74.627  2.13E-06  3.82E-06  0.00E+00  0.00E+00  0.00E+00  0.00E+00  2.13E-06  3.82E-06  1.10E-04  0.00000
    136.   73.529  2.27E-06  4.20E-06  0.00E+00  0.00E+00  0.00E+00  0.00E+00  2.27E-06  4.20E-06  1.15E-04  0.00000
    138.   72.464  2.23E-06  4.25E-06  0.00E+00  0.00E+00  0.00E+00  0.00E+00  2.23E-06  4.25E-06  1.19E-04  0.00000
    140.   71.429  2.21E-06  4.33E-06  0.00E+00  0.00E+00  0.00E+00  0.00E+00  2.21E-06  4.33E-06  1.24E-04  0.00000
    142.   70.423  2.39E-06  4.81E-06  0.00E+00  0.00E+00  0.00E+00  0.00E+00  2.39E-06  4.81E-06  1.28E-04  0.00000
    144.   69.444  2.54E-06  5.27E-06  0.00E+00  0.00E+00  0.00E+00  0.00E+00  2.54E-06  5.27E-06  1.34E-04  0.00000
    146.   68.493  2.56E-06  5.46E-06  0.00E+00  0.00E+00  0.00E+00  0.00E+00  2.56E-06  5.46E-06  1.39E-04  0.00000
    148.   67.568  2.46E-06  5.40E-06  0.00E+00  0.00E+00  0.00E+00  0.00E+00  2.46E-06  5.40E-06  1.44E-04  0.00000
    150.   66.667  2.36E-06  5.32E-06  0.00E+00  0.00E+00  0.00E+00  0.00E+00  2.36E-06  5.32E-06  1.48E-04  0.00000
    152.   65.789  2.44E-06  5.64E-06  0.00E+00  0.00E+00  0.00E+00  0.00E+00  2.44E-06  5.64E-06  1.53E-04  0.00000
    154.   64.935  2.60E-06  6.16E-06  0.00E+00  0.00E+00  0.00E+00  0.00E+00  2.60E-06  6.16E-06  1.58E-04  0.00000
    156.   64.103  2.69E-06  6.55E-06  0.00E+00  0.00E+00  0.00E+00  0.00E+00  2.69E-06  6.55E-06  1.64E-04  0.00000
    158.   63.291  2.72E-06  6.79E-06  0.00E+00  0.00E+00  0.00E+00  0.00E+00  2.72E-06  6.79E-06  1.69E-04  0.00000
    160.   62.500  2.89E-06  7.39E-06  0.00E+00  0.00E+00  0.00E+00  0.00E+00  2.89E-06  7.39E-06  1.75E-04  0.00000
    162.   61.728  3.01E-06  7.90E-06  0.00E+00  0.00E+00  0.00E+00  0.00E+00  3.01E-06  7.90E-06  1.81E-04  0.00000
    164.   60.976  3.08E-06  8.28E-06  0.00E+00  0.00E+00  0.00E+00  0.00E+00  3.08E-06  8.28E-06  1.87E-04  0.00000
    166.   60.241  3.02E-06  8.31E-06  0.00E+00  0.00E+00  0.00E+00  0.00E+00  3.02E-06  8.31E-06  1.93E-04  0.00000
    168.   59.524  2.97E-06  8.39E-06  0.00E+00  0.00E+00  0.00E+00  0.00E+00  2.97E-06  8.39E-06  1.99E-04  0.00000
    170.   58.824  2.92E-06  8.44E-06  0.00E+00  0.00E+00  0.00E+00  0.00E+00  2.92E-06  8.44E-06  2.05E-04  0.00000
    172.   58.140  3.00E-06  8.87E-06  0.00E+00  0.00E+00  0.00E+00  0.00E+00  3.00E-06  8.87E-06  2.11E-04  0.00000
    174.   57.471  3.08E-06  9.34E-06  0.00E+00  0.00E+00  0.00E+00  0.00E+00  3.08E-06  9.34E-06  2.17E-04  0.00000
    176.   56.818  3.11E-06  9.63E-06  0.00E+00  0.00E+00  0.00E+00  0.00E+00  3.11E-06  9.63E-06  2.23E-04  0.00000
    178.   56.180  3.16E-06  1.00E-05  0.00E+00  0.00E+00  0.00E+00  0.00E+00  3.16E-06  1.00E-05  2.30E-04  0.00000
    180.   55.556  3.32E-06  1.08E-05  0.00E+00  0.00E+00  0.00E+00  0.00E+00  3.32E-06  1.08E-05  2.36E-04  0.00000
    182.   54.945  3.42E-06  1.13E-05  0.00E+00  0.00E+00  0.00E+00  0.00E+00  3.42E-06  1.13E-05  2.43E-04  0.00000
    184.   54.348  3.59E-06  1.22E-05  0.00E+00  0.00E+00  0.00E+00  0.00E+00  3.59E-06  1.22E-05  2.50E-04  0.00000
    186.   53.763  3.63E-06  1.26E-05  0.00E+00  0.00E+00  0.00E+00  0.00E+00  3.63E-06  1.26E-05  2.58E-04  0.00000
    188.   53.191  3.52E-06  1.24E-05  0.00E+00  0.00E+00  0.00E+00  0.00E+00  3.52E-06  1.24E-05  2.65E-04  0.00000
    190.   52.632  3.71E-06  1.34E-05  0.00E+00  0.00E+00  0.00E+00  0.00E+00  3.71E-06  1.34E-05  2.72E-04  0.00000
    192.   52.083  3.79E-06  1.40E-05  0.00E+00  0.00E+00  0.00E+00  0.00E+00  3.79E-06  1.40E-05  2.80E-04  0.00000
    194.   51.546  3.73E-06  1.40E-05  0.00E+00  0.00E+00  0.00E+00  0.00E+00  3.73E-06  1.40E-05  2.87E-04  0.00000
    196.   51.020  3.80E-06  1.46E-05  0.00E+00  0.00E+00  0.00E+00  0.00E+00  3.80E-06  1.46E-05  2.95E-04  0.00000
    198.   50.505  3.89E-06  1.52E-05  0.00E+00  0.00E+00  0.00E+00  0.00E+00  3.89E-06  1.52E-05  3.03E-04  0.00000
    200.   50.000  3.82E-06  1.53E-05  0.00E+00  0.00E+00  0.00E+00  0.00E+00  3.82E-06  1.53E-05  3.10E-04  0.00000
  iv          205
1                                             RADIANCE(WATTS/CM2-STER-XXX)
0  FREQ   WAVLEN    PATH THERMAL      SURFACE EMISSION    SURFACE REFLECTED     TOTAL RADIANCE   INTEGRAL    TOTAL
  (CM-1) (MICRN)    (CM-1)   (MICRN)    (CM-1)   (MICRN)    (CM-1)   (MICRN)    (CM-1)   (MICRN)    (CM-1)   TRANS

    202.   49.505  3.59E-06  1.46E-05  0.00E+00  0.00E+00  0.00E+00  0.00E+00  3.59E-06  1.46E-05  3.17E-04  0.00000
    204.   49.020  3.75E-06  1.56E-05  0.00E+00  0.00E+00  0.00E+00  0.00E+00  3.75E-06  1.56E-05  3.25E-04  0.00000
    206.   48.544  3.94E-06  1.67E-05  0.00E+00  0.00E+00  0.00E+00  0.00E+00  3.94E-06  1.67E-05  3.33E-04  0.00000
    208.   48.077  3.84E-06  1.66E-05  0.00E+00  0.00E+00  0.00E+00  0.00E+00  3.84E-06  1.66E-05  3.40E-04  0.00000
    210.   47.619  4.03E-06  1.78E-05  0.00E+00  0.00E+00  0.00E+00  0.00E+00  4.03E-06  1.78E-05  3.48E-04  0.00000
    212.   47.170  4.18E-06  1.88E-05  0.00E+00  0.00E+00  0.00E+00  0.00E+00  4.18E-06  1.88E-05  3.57E-04  0.00000
    214.   46.729  4.13E-06  1.89E-05  0.00E+00  0.00E+00  0.00E+00  0.00E+00  4.13E-06  1.89E-05  3.65E-04  0.00000
    216.   46.296  4.37E-06  2.04E-05  0.00E+00  0.00E+00  0.00E+00  0.00E+00  4.37E-06  2.04E-05  3.74E-04  0.00000
    218.   45.872  4.57E-06  2.17E-05  0.00E+00  0.00E+00  0.00E+00  0.00E+00  4.57E-06  2.17E-05  3.83E-04  0.00000
    220.   45.455  4.42E-06  2.14E-05  0.00E+00  0.00E+00  0.00E+00  0.00E+00  4.42E-06  2.14E-05  3.92E-04  0.00000
    222.   45.045  4.20E-06  2.07E-05  0.00E+00  0.00E+00  0.00E+00  0.00E+00  4.20E-06  2.07E-05  4.00E-04  0.00000
    224.   44.643  4.27E-06  2.14E-05  0.00E+00  0.00E+00  0.00E+00  0.00E+00  4.27E-06  2.14E-05  4.09E-04  0.00000
    226.   44.248  4.17E-06  2.13E-05  0.00E+00  0.00E+00  0.00E+00  0.00E+00  4.17E-06  2.13E-05  4.17E-04  0.00000
    228.   43.860  4.22E-06  2.20E-05  0.00E+00  0.00E+00  0.00E+00  0.00E+00  4.22E-06  2.20E-05  4.26E-04  0.00000
    230.   43.478  4.59E-06  2.43E-05  0.00E+00  0.00E+00  0.00E+00  0.00E+00  4.59E-06  2.43E-05  4.35E-04  0.00000
    232.   43.103  4.76E-06  2.56E-05  0.00E+00  0.00E+00  0.00E+00  0.00E+00  4.76E-06  2.56E-05  4.44E-04  0.00000
    234.   42.735  4.97E-06  2.72E-05  0.00E+00  0.00E+00  0.00E+00  0.00E+00  4.97E-06  2.72E-05  4.54E-04  0.00000
    236.   42.373  5.14E-06  2.86E-05  0.00E+00  0.00E+00  0.00E+00  0.00E+00  5.14E-06  2.86E-05  4.64E-04  0.00000
    238.   42.017  5.21E-06  2.95E-05  0.00E+00  0.00E+00  0.00E+00  0.00E+00  5.21E-06  2.95E-05  4.75E-04  0.00000
    240.   41.667  5.26E-06  3.03E-05  0.00E+00  0.00E+00  0.00E+00  0.00E+00  5.26E-06  3.03E-05  4.85E-04  0.00000
    242.   41.322  5.21E-06  3.05E-05  0.00E+00  0.00E+00  0.00E+00  0.00E+00  5.21E-06  3.05E-05  4.96E-04  0.00000
    244.   40.984  4.87E-06  2.90E-05  0.00E+00  0.00E+00  0.00E+00  0.00E+00  4.87E-06  2.90E-05  5.06E-04  0.00000
    246.   40.650  4.59E-06  2.78E-05  0.00E+00  0.00E+00  0.00E+00  0.00E+00  4.59E-06  2.78E-05  5.15E-04  0.00000
    248.   40.323  4.72E-06  2.90E-05  0.00E+00  0.00E+00  0.00E+00  0.00E+00  4.72E-06  2.90E-05  5.24E-04  0.00000
    250.   40.000  5.05E-06  3.16E-05  0.00E+00  0.00E+00  0.00E+00  0.00E+00  5.05E-06  3.16E-05  5.34E-04  0.00000
    252.   39.683  4.97E-06  3.15E-05  0.00E+00  0.00E+00  0.00E+00  0.00E+00  4.97E-06  3.15E-05  5.44E-04  0.00000
    254.   39.370  4.80E-06  3.10E-05  0.00E+00  0.00E+00  0.00E+00  0.00E+00  4.80E-06  3.10E-05  5.54E-04  0.00000
    256.   39.063  5.21E-06  3.41E-05  0.00E+00  0.00E+00  0.00E+00  0.00E+00  5.21E-06  3.41E-05  5.64E-04  0.00000
    258.   38.760  5.59E-06  3.72E-05  0.00E+00  0.00E+00  0.00E+00  0.00E+00  5.59E-06  3.72E-05  5.75E-04  0.00000
    260.   38.462  5.77E-06  3.90E-05  0.00E+00  0.00E+00  0.00E+00  0.00E+00  5.77E-06  3.90E-05  5.87E-04  0.00000
    262.   38.168  5.80E-06  3.98E-05  0.00E+00  0.00E+00  0.00E+00  0.00E+00  5.80E-06  3.98E-05  5.99E-04  0.00000
    264.   37.879  5.71E-06  3.98E-05  0.00E+00  0.00E+00  0.00E+00  0.00E+00  5.71E-06  3.98E-05  6.10E-04  0.00000
    266.   37.594  5.53E-06  3.91E-05  0.00E+00  0.00E+00  0.00E+00  0.00E+00  5.53E-06  3.91E-05  6.21E-04  0.00000
    268.   37.313  5.77E-06  4.14E-05  0.00E+00  0.00E+00  0.00E+00  0.00E+00  5.77E-06  4.14E-05  6.33E-04  0.00000
    270.   37.037  6.03E-06  4.40E-05  0.00E+00  0.00E+00  0.00E+00  0.00E+00  6.03E-06  4.40E-05  6.45E-04  0.00000
    272.   36.765  6.04E-06  4.47E-05  0.00E+00  0.00E+00  0.00E+00  0.00E+00  6.04E-06  4.47E-05  6.57E-04  0.00000
    274.   36.496  5.90E-06  4.43E-05  0.00E+00  0.00E+00  0.00E+00  0.00E+00  5.90E-06  4.43E-05  6.69E-04  0.00000
    276.   36.232  5.51E-06  4.19E-05  0.00E+00  0.00E+00  0.00E+00  0.00E+00  5.51E-06  4.19E-05  6.80E-04  0.00000
    278.   35.971  5.20E-06  4.02E-05  0.00E+00  0.00E+00  0.00E+00  0.00E+00  5.20E-06  4.02E-05  6.90E-04  0.00000
    280.   35.714  5.25E-06  4.12E-05  0.00E+00  0.00E+00  0.00E+00  0.00E+00  5.25E-06  4.12E-05  7.00E-04  0.00000
    282.   35.461  5.42E-06  4.31E-05  0.00E+00  0.00E+00  0.00E+00  0.00E+00  5.42E-06  4.31E-05  7.11E-04  0.00000
    284.   35.211  5.90E-06  4.76E-05  0.00E+00  0.00E+00  0.00E+00  0.00E+00  5.90E-06  4.76E-05  7.23E-04  0.00000
    286.   34.965  6.22E-06  5.09E-05  0.00E+00  0.00E+00  0.00E+00  0.00E+00  6.22E-06  5.09E-05  7.36E-04  0.00000
    288.   34.722  5.96E-06  4.94E-05  0.00E+00  0.00E+00  0.00E+00  0.00E+00  5.96E-06  4.94E-05  7.47E-04  0.00000
    290.   34.483  5.85E-06  4.92E-05  0.00E+00  0.00E+00  0.00E+00  0.00E+00  5.85E-06  4.92E-05  7.59E-04  0.00000
    292.   34.247  6.37E-06  5.43E-05  0.00E+00  0.00E+00  0.00E+00  0.00E+00  6.37E-06  5.43E-05  7.72E-04  0.00000
    294.   34.014  6.65E-06  5.75E-05  0.00E+00  0.00E+00  0.00E+00  0.00E+00  6.65E-06  5.75E-05  7.85E-04  0.00000
    296.   33.784  6.62E-06  5.80E-05  0.00E+00  0.00E+00  0.00E+00  0.00E+00  6.62E-06  5.80E-05  7.98E-04  0.00000
    298.   33.557  6.48E-06  5.75E-05  0.00E+00  0.00E+00  0.00E+00  0.00E+00  6.48E-06  5.75E-05  8.11E-04  0.00000
    300.   33.333  6.28E-06  5.65E-05  0.00E+00  0.00E+00  0.00E+00  0.00E+00  6.28E-06  5.65E-05  8.24E-04  0.00000
  iv          305
1                                             RADIANCE(WATTS/CM2-STER-XXX)
0  FREQ   WAVLEN    PATH THERMAL      SURFACE EMISSION    SURFACE REFLECTED     TOTAL RADIANCE   INTEGRAL    TOTAL
  (CM-1) (MICRN)    (CM-1)   (MICRN)    (CM-1)   (MICRN)    (CM-1)   (MICRN)    (CM-1)   (MICRN)    (CM-1)   TRANS

    302.   33.113  5.79E-06  5.28E-05  0.00E+00  0.00E+00  0.00E+00  0.00E+00  5.79E-06  5.28E-05  8.36E-04  0.00000
    304.   32.895  5.98E-06  5.53E-05  0.00E+00  0.00E+00  0.00E+00  0.00E+00  5.98E-06  5.53E-05  8.48E-04  0.00000
    306.   32.680  6.65E-06  6.23E-05  0.00E+00  0.00E+00  0.00E+00  0.00E+00  6.65E-06  6.23E-05  8.61E-04  0.00000
    308.   32.468  6.90E-06  6.54E-05  0.00E+00  0.00E+00  0.00E+00  0.00E+00  6.90E-06  6.54E-05  8.75E-04  0.00000
    310.   32.258  7.00E-06  6.73E-05  0.00E+00  0.00E+00  0.00E+00  0.00E+00  7.00E-06  6.73E-05  8.89E-04  0.00000
    312.   32.051  7.07E-06  6.89E-05  0.00E+00  0.00E+00  0.00E+00  0.00E+00  7.07E-06  6.89E-05  9.03E-04  0.00000
    314.   31.847  6.76E-06  6.66E-05  0.00E+00  0.00E+00  0.00E+00  0.00E+00  6.76E-06  6.66E-05  9.16E-04  0.00000
    316.   31.646  6.78E-06  6.77E-05  0.00E+00  0.00E+00  0.00E+00  0.00E+00  6.78E-06  6.77E-05  9.30E-04  0.00000
    318.   31.447  7.24E-06  7.33E-05  0.00E+00  0.00E+00  0.00E+00  0.00E+00  7.24E-06  7.33E-05  9.44E-04  0.00000
    320.   31.250  7.22E-06  7.40E-05  0.00E+00  0.00E+00  0.00E+00  0.00E+00  7.22E-06  7.40E-05  9.59E-04  0.00000
    322.   31.056  6.76E-06  7.01E-05  0.00E+00  0.00E+00  0.00E+00  0.00E+00  6.76E-06  7.01E-05  9.72E-04  0.00000
    324.   30.864  6.38E-06  6.70E-05  0.00E+00  0.00E+00  0.00E+00  0.00E+00  6.38E-06  6.70E-05  9.85E-04  0.00000
    326.   30.675  6.58E-06  6.99E-05  0.00E+00  0.00E+00  0.00E+00  0.00E+00  6.58E-06  6.99E-05  9.98E-04  0.00000
    328.   30.488  6.50E-06  7.00E-05  0.00E+00  0.00E+00  0.00E+00  0.00E+00  6.50E-06  7.00E-05  1.01E-03  0.00000
    330.   30.303  7.12E-06  7.75E-05  0.00E+00  0.00E+00  0.00E+00  0.00E+00  7.12E-06  7.75E-05  1.03E-03  0.00000
    332.   30.120  7.46E-06  8.22E-05  0.00E+00  0.00E+00  0.00E+00  0.00E+00  7.46E-06  8.22E-05  1.04E-03  0.00000
    334.   29.940  6.97E-06  7.77E-05  0.00E+00  0.00E+00  0.00E+00  0.00E+00  6.97E-06  7.77E-05  1.05E-03  0.00000
    336.   29.762  6.89E-06  7.78E-05  0.00E+00  0.00E+00  0.00E+00  0.00E+00  6.89E-06  7.78E-05  1.07E-03  0.00000
    338.   29.586  7.53E-06  8.60E-05  0.00E+00  0.00E+00  0.00E+00  0.00E+00  7.53E-06  8.60E-05  1.08E-03  0.00000
    340.   29.412  7.35E-06  8.49E-05  0.00E+00  0.00E+00  0.00E+00  0.00E+00  7.35E-06  8.49E-05  1.10E-03  0.00000
    342.   29.240  7.27E-06  8.50E-05  0.00E+00  0.00E+00  0.00E+00  0.00E+00  7.27E-06  8.50E-05  1.11E-03  0.00000
    344.   29.070  7.57E-06  8.96E-05  0.00E+00  0.00E+00  0.00E+00  0.00E+00  7.57E-06  8.96E-05  1.13E-03  0.00000
    346.   28.902  7.72E-06  9.24E-05  0.00E+00  0.00E+00  0.00E+00  0.00E+00  7.72E-06  9.24E-05  1.14E-03  0.00000
    348.   28.736  7.49E-06  9.07E-05  0.00E+00  0.00E+00  0.00E+00  0.00E+00  7.49E-06  9.07E-05  1.16E-03  0.00000
    350.   28.571  6.95E-06  8.51E-05  0.00E+00  0.00E+00  0.00E+00  0.00E+00  6.95E-06  8.51E-05  1.17E-03  0.00000
    352.   28.409  6.86E-06  8.50E-05  0.00E+00  0.00E+00  0.00E+00  0.00E+00  6.86E-06  8.50E-05  1.19E-03  0.00000
    354.   28.249  6.96E-06  8.72E-05  0.00E+00  0.00E+00  0.00E+00  0.00E+00  6.96E-06  8.72E-05  1.20E-03  0.00000
    356.   28.090  7.04E-06  8.93E-05  0.00E+00  0.00E+00  0.00E+00  0.00E+00  7.04E-06  8.93E-05  1.21E-03  0.00000
    358.   27.933  7.32E-06  9.39E-05  0.00E+00  0.00E+00  0.00E+00  0.00E+00  7.32E-06  9.39E-05  1.23E-03  0.00000
    360.   27.778  8.10E-06  1.05E-04  0.00E+00  0.00E+00  0.00E+00  0.00E+00  8.10E-06  1.05E-04  1.24E-03  0.00000
    362.   27.624  8.43E-06  1.10E-04  0.00E+00  0.00E+00  0.00E+00  0.00E+00  8.43E-06  1.10E-04  1.26E-03  0.00000
    364.   27.473  8.58E-06  1.14E-04  0.00E+00  0.00E+00  0.00E+00  0.00E+00  8.58E-06  1.14E-04  1.28E-03  0.00000
    366.   27.322  8.67E-06  1.16E-04  0.00E+00  0.00E+00  0.00E+00  0.00E+00  8.67E-06  1.16E-04  1.30E-03  0.00000
    368.   27.174  8.23E-06  1.11E-04  0.00E+00  0.00E+00  0.00E+00  0.00E+00  8.23E-06  1.11E-04  1.31E-03  0.00000
    370.   27.027  7.80E-06  1.07E-04  0.00E+00  0.00E+00  0.00E+00  0.00E+00  7.80E-06  1.07E-04  1.33E-03  0.00000
    372.   26.882  8.13E-06  1.13E-04  0.00E+00  0.00E+00  0.00E+00  0.00E+00  8.13E-06  1.13E-04  1.34E-03  0.00000
    374.   26.738  7.58E-06  1.06E-04  0.00E+00  0.00E+00  0.00E+00  0.00E+00  7.58E-06  1.06E-04  1.36E-03  0.00000
    376.   26.596  7.55E-06  1.07E-04  0.00E+00  0.00E+00  0.00E+00  0.00E+00  7.55E-06  1.07E-04  1.37E-03  0.00000
    378.   26.455  8.40E-06  1.20E-04  1.40E-45  1.96E-44  0.00E+00  0.00E+00  8.40E-06  1.20E-04  1.39E-03  0.00000
    380.   26.316  8.83E-06  1.28E-04  7.68E-43  1.11E-41  0.00E+00  0.00E+00  8.83E-06  1.28E-04  1.41E-03  0.00000
    382.   26.178  8.75E-06  1.28E-04  7.76E-43  1.13E-41  0.00E+00  0.00E+00  8.75E-06  1.28E-04  1.43E-03  0.00000
    384.   26.042  7.96E-06  1.17E-04  4.20E-45  6.17E-44  0.00E+00  0.00E+00  7.96E-06  1.17E-04  1.44E-03  0.00000
    386.   25.907  8.00E-06  1.19E-04  3.69E-37  5.50E-36  0.00E+00  0.00E+00  8.00E-06  1.19E-04  1.46E-03  0.00000
    388.   25.773  9.00E-06  1.35E-04  2.06E-34  3.11E-33  0.00E+00  0.00E+00  9.00E-06  1.35E-04  1.48E-03  0.00000
    390.   25.641  9.31E-06  1.42E-04  3.57E-34  5.43E-33  0.00E+00  0.00E+00  9.31E-06  1.42E-04  1.49E-03  0.00000
    392.   25.510  9.09E-06  1.40E-04  9.40E-35  1.44E-33  0.00E+00  0.00E+00  9.09E-06  1.40E-04  1.51E-03  0.00000
    394.   25.381  8.32E-06  1.29E-04  4.91E-41  7.62E-40  0.00E+00  0.00E+00  8.32E-06  1.29E-04  1.53E-03  0.00000
    396.   25.253  7.65E-06  1.20E-04  0.00E+00  0.00E+00  0.00E+00  0.00E+00  7.65E-06  1.20E-04  1.54E-03  0.00000
    398.   25.126  7.49E-06  1.19E-04  0.00E+00  0.00E+00  0.00E+00  0.00E+00  7.49E-06  1.19E-04  1.56E-03  0.00000
    400.   25.000  8.15E-06  1.30E-04  5.00E-40  8.00E-39  0.00E+00  0.00E+00  8.15E-06  1.30E-04  1.58E-03  0.00000
  iv          405
1                                             RADIANCE(WATTS/CM2-STER-XXX)
0  FREQ   WAVLEN    PATH THERMAL      SURFACE EMISSION    SURFACE REFLECTED     TOTAL RADIANCE   INTEGRAL    TOTAL
  (CM-1) (MICRN)    (CM-1)   (MICRN)    (CM-1)   (MICRN)    (CM-1)   (MICRN)    (CM-1)   (MICRN)    (CM-1)   TRANS

    402.   24.876  9.26E-06  1.50E-04  7.15E-29  1.16E-27  0.00E+00  0.00E+00  9.26E-06  1.50E-04  1.59E-03  0.00000
    404.   24.752  9.67E-06  1.58E-04  3.16E-26  5.15E-25  0.00E+00  0.00E+00  9.67E-06  1.58E-04  1.61E-03  0.00000
    406.   24.631  9.81E-06  1.62E-04  1.53E-23  2.51E-22  0.00E+00  0.00E+00  9.81E-06  1.62E-04  1.63E-03  0.00000
    408.   24.510  1.00E-05  1.67E-04  7.17E-23  1.19E-21  0.00E+00  0.00E+00  1.00E-05  1.67E-04  1.65E-03  0.00000
    410.   24.390  1.01E-05  1.69E-04  9.66E-23  1.62E-21  0.00E+00  0.00E+00  1.01E-05  1.69E-04  1.67E-03  0.00000
    412.   24.272  1.00E-05  1.70E-04  5.24E-23  8.90E-22  0.00E+00  0.00E+00  1.00E-05  1.70E-04  1.69E-03  0.00000
    414.   24.155  9.80E-06  1.68E-04  4.67E-24  8.00E-23  0.00E+00  0.00E+00  9.80E-06  1.68E-04  1.71E-03  0.00000
    416.   24.038  9.09E-06  1.57E-04  4.56E-28  7.89E-27  0.00E+00  0.00E+00  9.09E-06  1.57E-04  1.73E-03  0.00000
    418.   23.923  7.90E-06  1.38E-04  4.20E-45  7.29E-44  0.00E+00  0.00E+00  7.90E-06  1.38E-04  1.75E-03  0.00000
    420.   23.810  7.96E-06  1.40E-04  0.00E+00  0.00E+00  0.00E+00  0.00E+00  7.96E-06  1.40E-04  1.76E-03  0.00000
    422.   23.697  8.78E-06  1.56E-04  3.41E-36  6.07E-35  0.00E+00  0.00E+00  8.78E-06  1.56E-04  1.78E-03  0.00000
    424.   23.585  8.99E-06  1.62E-04  1.78E-31  3.20E-30  0.00E+00  0.00E+00  8.99E-06  1.62E-04  1.80E-03  0.00000
    426.   23.474  9.38E-06  1.70E-04  7.16E-22  1.30E-20  0.00E+00  0.00E+00  9.38E-06  1.70E-04  1.82E-03  0.00000
    428.   23.364  1.01E-05  1.85E-04  5.57E-21  1.02E-19  0.00E+00  0.00E+00  1.01E-05  1.85E-04  1.84E-03  0.00000
    430.   23.256  9.83E-06  1.82E-04  8.92E-21  1.65E-19  0.00E+00  0.00E+00  9.83E-06  1.82E-04  1.86E-03  0.00000
    432.   23.148  9.78E-06  1.82E-04  2.71E-20  5.05E-19  0.00E+00  0.00E+00  9.78E-06  1.82E-04  1.88E-03  0.00000
    434.   23.041  1.00E-05  1.89E-04  2.25E-20  4.24E-19  0.00E+00  0.00E+00  1.00E-05  1.89E-04  1.90E-03  0.00000
    436.   22.936  9.77E-06  1.86E-04  2.47E-20  4.69E-19  0.00E+00  0.00E+00  9.77E-06  1.86E-04  1.92E-03  0.00000
    438.   22.831  1.03E-05  1.98E-04  4.14E-19  7.94E-18  0.00E+00  0.00E+00  1.03E-05  1.98E-04  1.94E-03  0.00000
    440.   22.727  1.01E-05  1.95E-04  3.75E-19  7.26E-18  0.00E+00  0.00E+00  1.01E-05  1.95E-04  1.96E-03  0.00000
    442.   22.624  8.95E-06  1.75E-04  4.61E-21  9.00E-20  0.00E+00  0.00E+00  8.95E-06  1.75E-04  1.98E-03  0.00000
    444.   22.523  9.37E-06  1.85E-04  6.86E-24  1.35E-22  0.00E+00  0.00E+00  9.37E-06  1.85E-04  1.99E-03  0.00000
    446.   22.422  9.89E-06  1.97E-04  1.16E-20  2.31E-19  0.00E+00  0.00E+00  9.89E-06  1.97E-04  2.01E-03  0.00000
    448.   22.321  1.04E-05  2.08E-04  2.60E-17  5.21E-16  0.00E+00  0.00E+00  1.04E-05  2.08E-04  2.03E-03  0.00000
    450.   22.222  1.06E-05  2.16E-04  2.68E-17  5.42E-16  0.00E+00  0.00E+00  1.06E-05  2.16E-04  2.06E-03  0.00000
    452.   22.124  9.98E-06  2.04E-04  4.89E-19  9.98E-18  0.00E+00  0.00E+00  9.98E-06  2.04E-04  2.08E-03  0.00000
    454.   22.026  9.93E-06  2.05E-04  7.22E-20  1.49E-18  0.00E+00  0.00E+00  9.93E-06  2.05E-04  2.10E-03  0.00000
    456.   21.930  9.29E-06  1.93E-04  1.44E-25  3.00E-24  0.00E+00  0.00E+00  9.29E-06  1.93E-04  2.11E-03  0.00000
    458.   21.834  8.66E-06  1.82E-04  1.87E-25  3.92E-24  0.00E+00  0.00E+00  8.66E-06  1.82E-04  2.13E-03  0.00000
    460.   21.739  9.83E-06  2.08E-04  7.72E-22  1.63E-20  0.00E+00  0.00E+00  9.83E-06  2.08E-04  2.15E-03  0.00000
    462.   21.645  1.06E-05  2.27E-04  1.15E-15  2.46E-14  0.00E+00  0.00E+00  1.06E-05  2.27E-04  2.17E-03  0.00000
    464.   21.552  1.11E-05  2.39E-04  1.35E-14  2.91E-13  0.00E+00  0.00E+00  1.11E-05  2.39E-04  2.19E-03  0.00000
    466.   21.459  1.08E-05  2.35E-04  1.18E-14  2.56E-13  0.00E+00  0.00E+00  1.08E-05  2.35E-04  2.22E-03  0.00000
    468.   21.368  1.02E-05  2.24E-04  1.90E-16  4.16E-15  0.00E+00  0.00E+00  1.02E-05  2.24E-04  2.24E-03  0.00000
    470.   21.277  1.00E-05  2.22E-04  8.72E-20  1.93E-18  0.00E+00  0.00E+00  1.00E-05  2.22E-04  2.26E-03  0.00000
    472.   21.186  9.02E-06  2.01E-04  1.13E-20  2.51E-19  0.00E+00  0.00E+00  9.02E-06  2.01E-04  2.28E-03  0.00000
    474.   21.097  9.67E-06  2.17E-04  2.17E-17  4.88E-16  0.00E+00  0.00E+00  9.67E-06  2.17E-04  2.29E-03  0.00000
    476.   21.008  1.09E-05  2.47E-04  1.61E-13  3.64E-12  0.00E+00  0.00E+00  1.09E-05  2.47E-04  2.32E-03  0.00000
    478.   20.921  1.14E-05  2.62E-04  1.00E-12  2.29E-11  0.00E+00  0.00E+00  1.14E-05  2.62E-04  2.34E-03  0.00000
    480.   20.833  1.13E-05  2.61E-04  8.49E-13  1.96E-11  0.00E+00  0.00E+00  1.13E-05  2.61E-04  2.36E-03  0.00000
    482.   20.747  1.05E-05  2.44E-04  9.41E-14  2.19E-12  0.00E+00  0.00E+00  1.05E-05  2.44E-04  2.38E-03  0.00000
    484.   20.661  9.77E-06  2.29E-04  2.69E-14  6.31E-13  0.00E+00  0.00E+00  9.77E-06  2.29E-04  2.40E-03  0.00000
    486.   20.576  1.06E-05  2.52E-04  8.59E-13  2.03E-11  0.00E+00  0.00E+00  1.06E-05  2.52E-04  2.42E-03  0.00000
    488.   20.492  1.16E-05  2.75E-04  4.84E-12  1.15E-10  0.00E+00  0.00E+00  1.16E-05  2.75E-04  2.45E-03  0.00000
    490.   20.408  1.13E-05  2.72E-04  3.51E-12  8.42E-11  0.00E+00  0.00E+00  1.13E-05  2.72E-04  2.47E-03  0.00000
    492.   20.325  1.04E-05  2.52E-04  2.19E-13  5.29E-12  0.00E+00  0.00E+00  1.04E-05  2.52E-04  2.49E-03  0.00000
    494.   20.243  1.11E-05  2.72E-04  1.42E-11  3.47E-10  0.00E+00  0.00E+00  1.11E-05  2.72E-04  2.51E-03  0.00000
    496.   20.161  1.20E-05  2.95E-04  8.58E-11  2.11E-09  0.00E+00  0.00E+00  1.20E-05  2.95E-04  2.54E-03  0.00001
    498.   20.080  1.20E-05  2.99E-04  9.08E-11  2.25E-09  0.00E+00  0.00E+00  1.20E-05  2.99E-04  2.56E-03  0.00001
    500.   20.000  1.13E-05  2.81E-04  1.87E-11  4.66E-10  0.00E+00  0.00E+00  1.13E-05  2.81E-04  2.58E-03  0.00000
  iv          505
1                                             RADIANCE(WATTS/CM2-STER-XXX)
0  FREQ   WAVLEN    PATH THERMAL      SURFACE EMISSION    SURFACE REFLECTED     TOTAL RADIANCE   INTEGRAL    TOTAL
  (CM-1) (MICRN)    (CM-1)   (MICRN)    (CM-1)   (MICRN)    (CM-1)   (MICRN)    (CM-1)   (MICRN)    (CM-1)   TRANS

    502.   19.920  1.00E-05  2.53E-04  7.70E-14  1.94E-12  0.00E+00  0.00E+00  1.00E-05  2.53E-04  2.60E-03  0.00000
    504.   19.841  1.04E-05  2.64E-04  1.21E-15  3.07E-14  0.00E+00  0.00E+00  1.04E-05  2.64E-04  2.62E-03  0.00000
    506.   19.763  1.02E-05  2.61E-04  1.16E-13  2.96E-12  0.00E+00  0.00E+00  1.02E-05  2.61E-04  2.64E-03  0.00000
    508.   19.685  1.06E-05  2.74E-04  1.23E-12  3.16E-11  0.00E+00  0.00E+00  1.06E-05  2.74E-04  2.67E-03  0.00000
    510.   19.608  1.12E-05  2.92E-04  2.14E-12  5.57E-11  0.00E+00  0.00E+00  1.12E-05  2.92E-04  2.69E-03  0.00000
    512.   19.531  1.14E-05  3.00E-04  2.95E-11  7.72E-10  0.00E+00  0.00E+00  1.14E-05  3.00E-04  2.71E-03  0.00000
    514.   19.455  1.15E-05  3.03E-04  2.86E-11  7.56E-10  0.00E+00  0.00E+00  1.15E-05  3.03E-04  2.73E-03  0.00000
    516.   19.380  1.03E-05  2.73E-04  6.05E-13  1.61E-11  0.00E+00  0.00E+00  1.03E-05  2.73E-04  2.75E-03  0.00000
    518.   19.305  9.61E-06  2.58E-04  3.13E-15  8.40E-14  0.00E+00  0.00E+00  9.61E-06  2.58E-04  2.77E-03  0.00000
    520.   19.231  1.03E-05  2.79E-04  3.86E-12  1.04E-10  0.00E+00  0.00E+00  1.03E-05  2.79E-04  2.79E-03  0.00000
    522.   19.157  1.16E-05  3.16E-04  2.07E-11  5.65E-10  0.00E+00  0.00E+00  1.16E-05  3.16E-04  2.82E-03  0.00000
    524.   19.084  1.12E-05  3.06E-04  1.33E-11  3.65E-10  0.00E+00  0.00E+00  1.12E-05  3.06E-04  2.84E-03  0.00000
    526.   19.011  1.04E-05  2.87E-04  1.42E-11  3.94E-10  0.00E+00  0.00E+00  1.04E-05  2.87E-04  2.86E-03  0.00000
    528.   18.939  1.17E-05  3.25E-04  5.24E-10  1.46E-08  0.00E+00  0.00E+00  1.17E-05  3.25E-04  2.88E-03  0.00004
    530.   18.868  1.25E-05  3.50E-04  3.69E-09  1.04E-07  0.00E+00  0.00E+00  1.25E-05  3.50E-04  2.91E-03  0.00025
    532.   18.797  1.25E-05  3.54E-04  5.11E-09  1.45E-07  0.00E+00  0.00E+00  1.25E-05  3.54E-04  2.93E-03  0.00034
    534.   18.727  1.20E-05  3.42E-04  1.72E-09  4.90E-08  0.00E+00  0.00E+00  1.20E-05  3.42E-04  2.96E-03  0.00012
    536.   18.657  1.13E-05  3.25E-04  5.51E-10  1.58E-08  0.00E+00  0.00E+00  1.13E-05  3.25E-04  2.98E-03  0.00004
    538.   18.587  1.20E-05  3.48E-04  3.68E-09  1.07E-07  0.00E+00  0.00E+00  1.20E-05  3.48E-04  3.00E-03  0.00025
    540.   18.519  1.21E-05  3.53E-04  3.88E-09  1.13E-07  0.00E+00  0.00E+00  1.21E-05  3.53E-04  3.03E-03  0.00026
    542.   18.450  1.20E-05  3.52E-04  1.69E-09  4.95E-08  0.00E+00  0.00E+00  1.20E-05  3.52E-04  3.05E-03  0.00011
    544.   18.382  1.13E-05  3.33E-04  1.13E-09  3.34E-08  0.00E+00  0.00E+00  1.13E-05  3.33E-04  3.08E-03  0.00008
    546.   18.315  1.02E-05  3.05E-04  1.51E-11  4.51E-10  0.00E+00  0.00E+00  1.02E-05  3.05E-04  3.10E-03  0.00000
    548.   18.248  1.09E-05  3.28E-04  1.01E-10  3.04E-09  0.00E+00  0.00E+00  1.09E-05  3.28E-04  3.12E-03  0.00001
    550.   18.182  1.14E-05  3.45E-04  6.74E-10  2.04E-08  0.00E+00  0.00E+00  1.14E-05  3.45E-04  3.14E-03  0.00004
    552.   18.116  1.20E-05  3.67E-04  4.59E-09  1.40E-07  0.00E+00  0.00E+00  1.20E-05  3.67E-04  3.16E-03  0.00031
    554.   18.051  1.19E-05  3.65E-04  4.55E-09  1.40E-07  0.00E+00  0.00E+00  1.19E-05  3.66E-04  3.19E-03  0.00030
    556.   17.986  1.19E-05  3.68E-04  5.61E-09  1.74E-07  0.00E+00  0.00E+00  1.19E-05  3.69E-04  3.21E-03  0.00037
    558.   17.921  1.25E-05  3.89E-04  1.75E-08  5.44E-07  0.00E+00  0.00E+00  1.25E-05  3.90E-04  3.24E-03  0.00116
    560.   17.857  1.27E-05  4.00E-04  3.17E-08  9.94E-07  0.00E+00  0.00E+00  1.28E-05  4.01E-04  3.26E-03  0.00210
    562.   17.794  1.22E-05  3.85E-04  2.15E-08  6.80E-07  0.00E+00  0.00E+00  1.22E-05  3.86E-04  3.29E-03  0.00143
    564.   17.730  1.19E-05  3.79E-04  5.71E-09  1.82E-07  0.00E+00  0.00E+00  1.19E-05  3.79E-04  3.31E-03  0.00038
    566.   17.668  1.15E-05  3.68E-04  2.59E-09  8.30E-08  0.00E+00  0.00E+00  1.15E-05  3.68E-04  3.33E-03  0.00017
    568.   17.606  1.04E-05  3.35E-04  8.28E-11  2.67E-09  0.00E+00  0.00E+00  1.04E-05  3.35E-04  3.35E-03  0.00001
    570.   17.544  1.07E-05  3.48E-04  8.10E-11  2.63E-09  0.00E+00  0.00E+00  1.07E-05  3.48E-04  3.38E-03  0.00001
    572.   17.483  1.18E-05  3.87E-04  4.88E-09  1.60E-07  0.00E+00  0.00E+00  1.18E-05  3.87E-04  3.40E-03  0.00032
    574.   17.422  1.18E-05  3.89E-04  7.88E-09  2.60E-07  0.00E+00  0.00E+00  1.18E-05  3.90E-04  3.42E-03  0.00052
    576.   17.361  1.08E-05  3.57E-04  1.82E-09  6.05E-08  0.00E+00  0.00E+00  1.08E-05  3.57E-04  3.44E-03  0.00012
    578.   17.301  1.11E-05  3.71E-04  1.76E-09  5.89E-08  0.00E+00  0.00E+00  1.11E-05  3.71E-04  3.47E-03  0.00012
    580.   17.241  1.07E-05  3.59E-04  1.28E-09  4.30E-08  0.00E+00  0.00E+00  1.07E-05  3.59E-04  3.49E-03  0.00008
    582.   17.182  1.04E-05  3.52E-04  8.90E-10  3.01E-08  0.00E+00  0.00E+00  1.04E-05  3.52E-04  3.51E-03  0.00006
    584.   17.123  1.06E-05  3.60E-04  1.47E-09  5.02E-08  0.00E+00  0.00E+00  1.06E-05  3.60E-04  3.53E-03  0.00010
    586.   17.065  1.03E-05  3.54E-04  6.50E-09  2.23E-07  0.00E+00  0.00E+00  1.03E-05  3.55E-04  3.55E-03  0.00043
    588.   17.007  1.04E-05  3.59E-04  1.32E-08  4.55E-07  0.00E+00  0.00E+00  1.04E-05  3.59E-04  3.57E-03  0.00087
    590.   16.949  9.62E-06  3.35E-04  4.41E-09  1.54E-07  0.00E+00  0.00E+00  9.62E-06  3.35E-04  3.59E-03  0.00029
    592.   16.892  8.95E-06  3.14E-04  5.96E-11  2.09E-09  0.00E+00  0.00E+00  8.95E-06  3.14E-04  3.61E-03  0.00000
    594.   16.835  8.59E-06  3.03E-04  3.86E-11  1.36E-09  0.00E+00  0.00E+00  8.59E-06  3.03E-04  3.63E-03  0.00000
    596.   16.779  7.94E-06  2.82E-04  2.46E-10  8.72E-09  0.00E+00  0.00E+00  7.94E-06  2.82E-04  3.64E-03  0.00002
    598.   16.722  8.23E-06  2.94E-04  1.04E-09  3.73E-08  0.00E+00  0.00E+00  8.23E-06  2.94E-04  3.66E-03  0.00007
    600.   16.667  8.88E-06  3.20E-04  1.19E-09  4.27E-08  0.00E+00  0.00E+00  8.89E-06  3.20E-04  3.68E-03  0.00008
  iv          605
1                                             RADIANCE(WATTS/CM2-STER-XXX)
0  FREQ   WAVLEN    PATH THERMAL      SURFACE EMISSION    SURFACE REFLECTED     TOTAL RADIANCE   INTEGRAL    TOTAL
  (CM-1) (MICRN)    (CM-1)   (MICRN)    (CM-1)   (MICRN)    (CM-1)   (MICRN)    (CM-1)   (MICRN)    (CM-1)   TRANS

    602.   16.611  8.47E-06  3.07E-04  2.02E-09  7.34E-08  0.00E+00  0.00E+00  8.47E-06  3.07E-04  3.69E-03  0.00013
    604.   16.556  8.08E-06  2.95E-04  1.63E-09  5.93E-08  0.00E+00  0.00E+00  8.09E-06  2.95E-04  3.71E-03  0.00011
    606.   16.502  7.80E-06  2.87E-04  1.87E-09  6.85E-08  0.00E+00  0.00E+00  7.81E-06  2.87E-04  3.73E-03  0.00012
    608.   16.447  7.69E-06  2.84E-04  2.50E-09  9.26E-08  0.00E+00  0.00E+00  7.69E-06  2.84E-04  3.74E-03  0.00017
    610.   16.393  8.00E-06  2.98E-04  3.10E-09  1.15E-07  0.00E+00  0.00E+00  8.00E-06  2.98E-04  3.76E-03  0.00021
    612.   16.340  8.03E-06  3.01E-04  2.54E-09  9.51E-08  0.00E+00  0.00E+00  8.03E-06  3.01E-04  3.77E-03  0.00017
    614.   16.287  7.32E-06  2.76E-04  5.79E-10  2.18E-08  0.00E+00  0.00E+00  7.32E-06  2.76E-04  3.79E-03  0.00004
    616.   16.234  6.23E-06  2.36E-04  8.66E-11  3.29E-09  0.00E+00  0.00E+00  6.23E-06  2.36E-04  3.80E-03  0.00001
    618.   16.181  6.05E-06  2.31E-04  8.00E-12  3.05E-10  0.00E+00  0.00E+00  6.05E-06  2.31E-04  3.81E-03  0.00000
    620.   16.129  6.91E-06  2.66E-04  6.82E-11  2.62E-09  0.00E+00  0.00E+00  6.91E-06  2.66E-04  3.83E-03  0.00000
    622.   16.077  6.84E-06  2.65E-04  3.09E-10  1.19E-08  0.00E+00  0.00E+00  6.84E-06  2.65E-04  3.84E-03  0.00002
    624.   16.026  6.34E-06  2.47E-04  2.17E-10  8.44E-09  0.00E+00  0.00E+00  6.34E-06  2.47E-04  3.85E-03  0.00001
    626.   15.974  5.91E-06  2.32E-04  1.48E-12  5.80E-11  0.00E+00  0.00E+00  5.91E-06  2.32E-04  3.86E-03  0.00000
    628.   15.924  5.56E-06  2.19E-04  2.69E-12  1.06E-10  0.00E+00  0.00E+00  5.56E-06  2.19E-04  3.87E-03  0.00000
    630.   15.873  5.33E-06  2.11E-04  2.08E-12  8.24E-11  0.00E+00  0.00E+00  5.33E-06  2.11E-04  3.89E-03  0.00000
    632.   15.823  5.14E-06  2.05E-04  1.15E-13  4.59E-12  0.00E+00  0.00E+00  5.14E-06  2.05E-04  3.90E-03  0.00000
    634.   15.773  4.98E-06  2.00E-04  1.18E-14  4.75E-13  0.00E+00  0.00E+00  4.98E-06  2.00E-04  3.91E-03  0.00000
    636.   15.723  4.83E-06  1.95E-04  2.69E-17  1.09E-15  0.00E+00  0.00E+00  4.83E-06  1.95E-04  3.92E-03  0.00000
    638.   15.674  4.74E-06  1.93E-04  1.75E-19  7.14E-18  0.00E+00  0.00E+00  4.74E-06  1.93E-04  3.92E-03  0.00000
    640.   15.625  4.70E-06  1.93E-04  7.69E-21  3.15E-19  0.00E+00  0.00E+00  4.70E-06  1.93E-04  3.93E-03  0.00000
    642.   15.576  4.73E-06  1.95E-04  9.71E-22  4.00E-20  0.00E+00  0.00E+00  4.73E-06  1.95E-04  3.94E-03  0.00000
    644.   15.528  4.81E-06  2.00E-04  9.41E-25  3.90E-23  0.00E+00  0.00E+00  4.81E-06  2.00E-04  3.95E-03  0.00000
    646.   15.480  4.96E-06  2.07E-04  3.45E-27  1.44E-25  0.00E+00  0.00E+00  4.96E-06  2.07E-04  3.96E-03  0.00000
    648.   15.432  5.47E-06  2.30E-04  1.66E-28  6.98E-27  0.00E+00  0.00E+00  5.47E-06  2.30E-04  3.97E-03  0.00000
    650.   15.385  5.54E-06  2.34E-04  3.69E-33  1.56E-31  0.00E+00  0.00E+00  5.54E-06  2.34E-04  3.99E-03  0.00000
    652.   15.337  5.18E-06  2.20E-04  1.14E-32  4.85E-31  0.00E+00  0.00E+00  5.18E-06  2.20E-04  4.00E-03  0.00000
    654.   15.291  5.04E-06  2.16E-04  2.67E-27  1.14E-25  0.00E+00  0.00E+00  5.04E-06  2.16E-04  4.01E-03  0.00000
    656.   15.244  5.02E-06  2.16E-04  2.67E-27  1.15E-25  0.00E+00  0.00E+00  5.02E-06  2.16E-04  4.02E-03  0.00000
    658.   15.198  5.12E-06  2.22E-04  2.26E-32  9.78E-31  0.00E+00  0.00E+00  5.12E-06  2.22E-04  4.03E-03  0.00000
    660.   15.152  5.10E-06  2.22E-04  2.62E-32  1.14E-30  0.00E+00  0.00E+00  5.10E-06  2.22E-04  4.04E-03  0.00000
    662.   15.106  5.41E-06  2.37E-04  2.52E-32  1.10E-30  0.00E+00  0.00E+00  5.41E-06  2.37E-04  4.05E-03  0.00000
    664.   15.060  5.45E-06  2.40E-04  0.00E+00  0.00E+00  0.00E+00  0.00E+00  5.45E-06  2.40E-04  4.06E-03  0.00000
    666.   15.015  6.07E-06  2.69E-04  0.00E+00  0.00E+00  0.00E+00  0.00E+00  6.07E-06  2.69E-04  4.07E-03  0.00000
    668.   14.970  7.31E-06  3.26E-04  0.00E+00  0.00E+00  0.00E+00  0.00E+00  7.31E-06  3.26E-04  4.08E-03  0.00000
    670.   14.925  6.30E-06  2.83E-04  0.00E+00  0.00E+00  0.00E+00  0.00E+00  6.30E-06  2.83E-04  4.10E-03  0.00000
    672.   14.881  5.28E-06  2.38E-04  8.61E-38  3.89E-36  0.00E+00  0.00E+00  5.28E-06  2.38E-04  4.11E-03  0.00000
    674.   14.837  5.09E-06  2.31E-04  5.42E-32  2.46E-30  0.00E+00  0.00E+00  5.09E-06  2.31E-04  4.12E-03  0.00000
    676.   14.793  4.99E-06  2.28E-04  1.63E-31  7.43E-30  0.00E+00  0.00E+00  4.99E-06  2.28E-04  4.13E-03  0.00000
    678.   14.749  5.09E-06  2.34E-04  5.42E-32  2.49E-30  0.00E+00  0.00E+00  5.09E-06  2.34E-04  4.14E-03  0.00000
    680.   14.706  5.05E-06  2.34E-04  7.62E-38  3.52E-36  0.00E+00  0.00E+00  5.05E-06  2.34E-04  4.15E-03  0.00000
    682.   14.663  4.97E-06  2.31E-04  4.54E-30  2.11E-28  0.00E+00  0.00E+00  4.97E-06  2.31E-04  4.16E-03  0.00000
    684.   14.620  4.74E-06  2.22E-04  1.52E-29  7.09E-28  0.00E+00  0.00E+00  4.74E-06  2.22E-04  4.17E-03  0.00000
    686.   14.577  4.68E-06  2.20E-04  9.17E-30  4.32E-28  0.00E+00  0.00E+00  4.68E-06  2.20E-04  4.18E-03  0.00000
    688.   14.535  4.64E-06  2.20E-04  1.69E-30  8.00E-29  0.00E+00  0.00E+00  4.64E-06  2.20E-04  4.19E-03  0.00000
    690.   14.493  4.53E-06  2.16E-04  3.63E-22  1.73E-20  0.00E+00  0.00E+00  4.53E-06  2.16E-04  4.20E-03  0.00000
    692.   14.451  4.26E-06  2.04E-04  1.27E-21  6.08E-20  0.00E+00  0.00E+00  4.26E-06  2.04E-04  4.20E-03  0.00000
    694.   14.409  4.23E-06  2.04E-04  1.02E-21  4.89E-20  0.00E+00  0.00E+00  4.23E-06  2.04E-04  4.21E-03  0.00000
    696.   14.368  4.18E-06  2.03E-04  2.19E-20  1.06E-18  0.00E+00  0.00E+00  4.18E-06  2.03E-04  4.22E-03  0.00000
    698.   14.327  4.23E-06  2.06E-04  1.78E-15  8.67E-14  0.00E+00  0.00E+00  4.23E-06  2.06E-04  4.23E-03  0.00000
    700.   14.286  4.29E-06  2.10E-04  5.45E-15  2.67E-13  0.00E+00  0.00E+00  4.29E-06  2.10E-04  4.24E-03  0.00000
  iv          705
1                                             RADIANCE(WATTS/CM2-STER-XXX)
0  FREQ   WAVLEN    PATH THERMAL      SURFACE EMISSION    SURFACE REFLECTED     TOTAL RADIANCE   INTEGRAL    TOTAL
  (CM-1) (MICRN)    (CM-1)   (MICRN)    (CM-1)   (MICRN)    (CM-1)   (MICRN)    (CM-1)   (MICRN)    (CM-1)   TRANS

    702.   14.245  4.36E-06  2.15E-04  2.20E-15  1.08E-13  0.00E+00  0.00E+00  4.36E-06  2.15E-04  4.25E-03  0.00000
    704.   14.205  4.63E-06  2.30E-04  7.45E-15  3.69E-13  0.00E+00  0.00E+00  4.63E-06  2.30E-04  4.26E-03  0.00000
    706.   14.164  4.95E-06  2.47E-04  4.09E-13  2.04E-11  0.00E+00  0.00E+00  4.95E-06  2.47E-04  4.27E-03  0.00000
    708.   14.124  5.14E-06  2.58E-04  2.87E-11  1.44E-09  0.00E+00  0.00E+00  5.14E-06  2.58E-04  4.28E-03  0.00000
    710.   14.085  5.31E-06  2.68E-04  2.35E-10  1.19E-08  0.00E+00  0.00E+00  5.31E-06  2.68E-04  4.29E-03  0.00002
    712.   14.045  5.63E-06  2.85E-04  5.09E-10  2.58E-08  0.00E+00  0.00E+00  5.63E-06  2.85E-04  4.30E-03  0.00004
    714.   14.006  5.93E-06  3.02E-04  1.05E-09  5.34E-08  0.00E+00  0.00E+00  5.93E-06  3.02E-04  4.31E-03  0.00007
    716.   13.966  6.02E-06  3.09E-04  2.28E-09  1.17E-07  0.00E+00  0.00E+00  6.02E-06  3.09E-04  4.32E-03  0.00016
    718.   13.928  5.33E-06  2.75E-04  1.07E-09  5.50E-08  0.00E+00  0.00E+00  5.33E-06  2.75E-04  4.33E-03  0.00007
    720.   13.889  4.75E-06  2.46E-04  2.18E-11  1.13E-09  0.00E+00  0.00E+00  4.75E-06  2.46E-04  4.34E-03  0.00000
    722.   13.850  5.98E-06  3.12E-04  1.29E-08  6.71E-07  0.00E+00  0.00E+00  6.00E-06  3.13E-04  4.35E-03  0.00090
    724.   13.812  7.10E-06  3.72E-04  6.06E-08  3.18E-06  0.00E+00  0.00E+00  7.16E-06  3.75E-04  4.37E-03  0.00425
    726.   13.774  7.58E-06  4.00E-04  1.20E-07  6.34E-06  0.00E+00  0.00E+00  7.70E-06  4.06E-04  4.38E-03  0.00844
    728.   13.736  7.30E-06  3.87E-04  6.62E-08  3.51E-06  0.00E+00  0.00E+00  7.37E-06  3.90E-04  4.40E-03  0.00465
    730.   13.699  6.76E-06  3.60E-04  1.96E-08  1.05E-06  0.00E+00  0.00E+00  6.78E-06  3.62E-04  4.41E-03  0.00138
    732.   13.661  6.72E-06  3.60E-04  2.91E-08  1.56E-06  0.00E+00  0.00E+00  6.75E-06  3.62E-04  4.43E-03  0.00205
    734.   13.624  6.85E-06  3.69E-04  4.19E-08  2.25E-06  0.00E+00  0.00E+00  6.89E-06  3.71E-04  4.44E-03  0.00296
    736.   13.587  6.88E-06  3.73E-04  4.47E-08  2.42E-06  0.00E+00  0.00E+00  6.92E-06  3.75E-04  4.45E-03  0.00316
    738.   13.550  6.80E-06  3.71E-04  3.21E-08  1.75E-06  0.00E+00  0.00E+00  6.84E-06  3.72E-04  4.47E-03  0.00228
    740.   13.514  6.37E-06  3.49E-04  1.08E-08  5.94E-07  0.00E+00  0.00E+00  6.38E-06  3.49E-04  4.48E-03  0.00077
    742.   13.477  6.59E-06  3.63E-04  4.61E-08  2.54E-06  0.00E+00  0.00E+00  6.64E-06  3.66E-04  4.49E-03  0.00329
    744.   13.441  7.83E-06  4.33E-04  1.31E-07  7.26E-06  0.00E+00  0.00E+00  7.96E-06  4.41E-04  4.51E-03  0.00935
    746.   13.405  8.29E-06  4.61E-04  2.76E-07  1.54E-05  0.00E+00  0.00E+00  8.56E-06  4.76E-04  4.53E-03  0.01974
    748.   13.369  8.48E-06  4.75E-04  3.49E-07  1.95E-05  0.00E+00  0.00E+00  8.83E-06  4.94E-04  4.54E-03  0.02498
    750.   13.333  8.65E-06  4.86E-04  4.60E-07  2.59E-05  0.00E+00  0.00E+00  9.11E-06  5.12E-04  4.56E-03  0.03295
    752.   13.298  8.88E-06  5.02E-04  4.93E-07  2.79E-05  0.00E+00  0.00E+00  9.37E-06  5.30E-04  4.58E-03  0.03537
    754.   13.263  9.04E-06  5.14E-04  3.52E-07  2.00E-05  0.00E+00  0.00E+00  9.39E-06  5.34E-04  4.60E-03  0.02534
    756.   13.228  9.06E-06  5.18E-04  5.68E-07  3.25E-05  0.00E+00  0.00E+00  9.63E-06  5.51E-04  4.62E-03  0.04099
    758.   13.193  9.07E-06  5.21E-04  1.36E-06  7.79E-05  0.00E+00  0.00E+00  1.04E-05  5.99E-04  4.64E-03  0.09795
    760.   13.158  9.27E-06  5.35E-04  1.82E-06  1.05E-04  0.00E+00  0.00E+00  1.11E-05  6.41E-04  4.66E-03  0.13200
    762.   13.123  9.21E-06  5.35E-04  2.23E-06  1.29E-04  0.00E+00  0.00E+00  1.14E-05  6.64E-04  4.68E-03  0.16134
    764.   13.089  9.02E-06  5.26E-04  2.70E-06  1.57E-04  0.00E+00  0.00E+00  1.17E-05  6.84E-04  4.71E-03  0.19591
    766.   13.055  9.11E-06  5.35E-04  2.76E-06  1.62E-04  0.00E+00  0.00E+00  1.19E-05  6.97E-04  4.73E-03  0.20117
    768.   13.021  9.39E-06  5.54E-04  2.39E-06  1.41E-04  0.00E+00  0.00E+00  1.18E-05  6.95E-04  4.76E-03  0.17428
    770.   12.987  9.42E-06  5.59E-04  2.33E-06  1.38E-04  0.00E+00  0.00E+00  1.18E-05  6.97E-04  4.78E-03  0.17040
    772.   12.953  8.88E-06  5.29E-04  3.30E-06  1.97E-04  0.00E+00  0.00E+00  1.22E-05  7.26E-04  4.80E-03  0.24180
    774.   12.920  9.01E-06  5.39E-04  3.15E-06  1.89E-04  0.00E+00  0.00E+00  1.22E-05  7.28E-04  4.83E-03  0.23129
    776.   12.887  9.62E-06  5.79E-04  2.00E-06  1.21E-04  0.00E+00  0.00E+00  1.16E-05  7.00E-04  4.85E-03  0.14729
    778.   12.853  9.35E-06  5.66E-04  2.41E-06  1.46E-04  0.00E+00  0.00E+00  1.18E-05  7.12E-04  4.87E-03  0.17781
    780.   12.821  8.77E-06  5.33E-04  3.45E-06  2.10E-04  0.00E+00  0.00E+00  1.22E-05  7.43E-04  4.90E-03  0.25512
    782.   12.788  8.60E-06  5.26E-04  3.55E-06  2.17E-04  0.00E+00  0.00E+00  1.22E-05  7.43E-04  4.92E-03  0.26275
    784.   12.755  9.25E-06  5.69E-04  2.37E-06  1.45E-04  0.00E+00  0.00E+00  1.16E-05  7.14E-04  4.95E-03  0.17542
    786.   12.723  8.71E-06  5.38E-04  3.39E-06  2.10E-04  0.00E+00  0.00E+00  1.21E-05  7.48E-04  4.97E-03  0.25233
    788.   12.690  7.95E-06  4.93E-04  4.53E-06  2.81E-04  0.00E+00  0.00E+00  1.25E-05  7.75E-04  5.00E-03  0.33761
    790.   12.658  8.00E-06  5.00E-04  3.89E-06  2.43E-04  0.00E+00  0.00E+00  1.19E-05  7.42E-04  5.02E-03  0.29000
    792.   12.626  8.59E-06  5.39E-04  2.18E-06  1.37E-04  0.00E+00  0.00E+00  1.08E-05  6.76E-04  5.04E-03  0.16293
    794.   12.594  9.42E-06  5.94E-04  1.64E-06  1.03E-04  0.00E+00  0.00E+00  1.11E-05  6.97E-04  5.06E-03  0.12283
    796.   12.563  9.55E-06  6.05E-04  1.63E-06  1.04E-04  0.00E+00  0.00E+00  1.12E-05  7.08E-04  5.09E-03  0.12281
    798.   12.531  9.44E-06  6.01E-04  1.56E-06  9.92E-05  0.00E+00  0.00E+00  1.10E-05  7.00E-04  5.11E-03  0.11726
    800.   12.500  8.64E-06  5.53E-04  2.83E-06  1.81E-04  0.00E+00  0.00E+00  1.15E-05  7.33E-04  5.13E-03  0.21338
  iv          805
1                                             RADIANCE(WATTS/CM2-STER-XXX)
0  FREQ   WAVLEN    PATH THERMAL      SURFACE EMISSION    SURFACE REFLECTED     TOTAL RADIANCE   INTEGRAL    TOTAL
  (CM-1) (MICRN)    (CM-1)   (MICRN)    (CM-1)   (MICRN)    (CM-1)   (MICRN)    (CM-1)   (MICRN)    (CM-1)   TRANS

    802.   12.469  8.48E-06  5.45E-04  3.37E-06  2.17E-04  0.00E+00  0.00E+00  1.18E-05  7.62E-04  5.15E-03  0.25505
    804.   12.438  8.73E-06  5.64E-04  2.86E-06  1.85E-04  0.00E+00  0.00E+00  1.16E-05  7.49E-04  5.18E-03  0.21724
    806.   12.407  8.24E-06  5.35E-04  3.59E-06  2.33E-04  0.00E+00  0.00E+00  1.18E-05  7.68E-04  5.20E-03  0.27284
    808.   12.376  8.34E-06  5.45E-04  3.36E-06  2.20E-04  0.00E+00  0.00E+00  1.17E-05  7.64E-04  5.22E-03  0.25631
    810.   12.346  7.58E-06  4.98E-04  4.44E-06  2.91E-04  0.00E+00  0.00E+00  1.20E-05  7.89E-04  5.25E-03  0.33919
    812.   12.315  7.43E-06  4.90E-04  4.65E-06  3.07E-04  0.00E+00  0.00E+00  1.21E-05  7.97E-04  5.27E-03  0.35624
    814.   12.285  8.29E-06  5.49E-04  3.41E-06  2.26E-04  0.00E+00  0.00E+00  1.17E-05  7.76E-04  5.30E-03  0.26185
    816.   12.255  7.75E-06  5.16E-04  4.13E-06  2.75E-04  0.00E+00  0.00E+00  1.19E-05  7.91E-04  5.32E-03  0.31763
    818.   12.225  6.87E-06  4.60E-04  5.32E-06  3.56E-04  0.00E+00  0.00E+00  1.22E-05  8.16E-04  5.34E-03  0.41031
    820.   12.195  6.73E-06  4.53E-04  5.47E-06  3.68E-04  0.00E+00  0.00E+00  1.22E-05  8.20E-04  5.37E-03  0.42262
    822.   12.165  6.69E-06  4.52E-04  5.49E-06  3.71E-04  0.00E+00  0.00E+00  1.22E-05  8.23E-04  5.39E-03  0.42564
    824.   12.136  6.92E-06  4.70E-04  5.14E-06  3.49E-04  0.00E+00  0.00E+00  1.21E-05  8.19E-04  5.42E-03  0.39887
    826.   12.107  7.47E-06  5.10E-04  4.38E-06  2.99E-04  0.00E+00  0.00E+00  1.18E-05  8.08E-04  5.44E-03  0.34090
    828.   12.077  7.68E-06  5.26E-04  4.02E-06  2.75E-04  0.00E+00  0.00E+00  1.17E-05  8.02E-04  5.46E-03  0.31364
    830.   12.048  6.72E-06  4.63E-04  5.27E-06  3.63E-04  0.00E+00  0.00E+00  1.20E-05  8.26E-04  5.49E-03  0.41233
    832.   12.019  6.33E-06  4.38E-04  5.77E-06  3.99E-04  0.00E+00  0.00E+00  1.21E-05  8.37E-04  5.51E-03  0.45247
    834.   11.990  6.39E-06  4.44E-04  5.66E-06  3.94E-04  0.00E+00  0.00E+00  1.20E-05  8.38E-04  5.54E-03  0.44507
    836.   11.962  6.58E-06  4.60E-04  5.39E-06  3.76E-04  0.00E+00  0.00E+00  1.20E-05  8.36E-04  5.56E-03  0.42479
    838.   11.933  6.71E-06  4.71E-04  5.13E-06  3.60E-04  0.00E+00  0.00E+00  1.18E-05  8.31E-04  5.58E-03  0.40524
    840.   11.905  7.33E-06  5.17E-04  4.21E-06  2.97E-04  0.00E+00  0.00E+00  1.15E-05  8.14E-04  5.61E-03  0.33402
    842.   11.876  6.78E-06  4.81E-04  4.92E-06  3.49E-04  0.00E+00  0.00E+00  1.17E-05  8.29E-04  5.63E-03  0.39098
    844.   11.848  6.12E-06  4.36E-04  5.74E-06  4.09E-04  0.00E+00  0.00E+00  1.19E-05  8.45E-04  5.65E-03  0.45713
    846.   11.820  6.00E-06  4.30E-04  5.84E-06  4.18E-04  0.00E+00  0.00E+00  1.18E-05  8.48E-04  5.68E-03  0.46654
    848.   11.792  6.30E-06  4.53E-04  5.39E-06  3.88E-04  0.00E+00  0.00E+00  1.17E-05  8.40E-04  5.70E-03  0.43163
    850.   11.765  7.16E-06  5.17E-04  4.09E-06  2.96E-04  0.00E+00  0.00E+00  1.13E-05  8.13E-04  5.72E-03  0.32876
    852.   11.737  7.94E-06  5.76E-04  2.94E-06  2.13E-04  0.00E+00  0.00E+00  1.09E-05  7.90E-04  5.75E-03  0.23686
    854.   11.710  7.64E-06  5.57E-04  3.45E-06  2.52E-04  0.00E+00  0.00E+00  1.11E-05  8.09E-04  5.77E-03  0.27904
    856.   11.682  6.43E-06  4.71E-04  5.08E-06  3.72E-04  0.00E+00  0.00E+00  1.15E-05  8.43E-04  5.79E-03  0.41158
    858.   11.655  5.82E-06  4.28E-04  5.87E-06  4.32E-04  0.00E+00  0.00E+00  1.17E-05  8.61E-04  5.81E-03  0.47698
    860.   11.628  5.81E-06  4.30E-04  5.84E-06  4.32E-04  0.00E+00  0.00E+00  1.17E-05  8.62E-04  5.84E-03  0.47592
    862.   11.601  5.57E-06  4.14E-04  6.11E-06  4.54E-04  0.00E+00  0.00E+00  1.17E-05  8.67E-04  5.86E-03  0.49854
    864.   11.574  6.05E-06  4.52E-04  5.42E-06  4.05E-04  0.00E+00  0.00E+00  1.15E-05  8.56E-04  5.88E-03  0.44387
    866.   11.547  6.06E-06  4.54E-04  5.38E-06  4.04E-04  0.00E+00  0.00E+00  1.14E-05  8.58E-04  5.91E-03  0.44207
    868.   11.521  5.41E-06  4.07E-04  6.18E-06  4.66E-04  0.00E+00  0.00E+00  1.16E-05  8.73E-04  5.93E-03  0.50899
    870.   11.494  5.77E-06  4.37E-04  5.62E-06  4.25E-04  0.00E+00  0.00E+00  1.14E-05  8.62E-04  5.95E-03  0.46359
    872.   11.468  5.81E-06  4.41E-04  5.53E-06  4.21E-04  0.00E+00  0.00E+00  1.13E-05  8.62E-04  5.97E-03  0.45840
    874.   11.442  5.28E-06  4.04E-04  6.20E-06  4.74E-04  0.00E+00  0.00E+00  1.15E-05  8.78E-04  6.00E-03  0.51527
    876.   11.416  5.26E-06  4.04E-04  6.19E-06  4.75E-04  0.00E+00  0.00E+00  1.15E-05  8.79E-04  6.02E-03  0.51572
    878.   11.390  5.65E-06  4.36E-04  5.64E-06  4.35E-04  0.00E+00  0.00E+00  1.13E-05  8.70E-04  6.04E-03  0.47084
    880.   11.364  5.73E-06  4.43E-04  5.49E-06  4.25E-04  0.00E+00  0.00E+00  1.12E-05  8.69E-04  6.07E-03  0.45980
    882.   11.338  5.65E-06  4.39E-04  5.56E-06  4.33E-04  0.00E+00  0.00E+00  1.12E-05  8.72E-04  6.09E-03  0.46732
    884.   11.312  5.81E-06  4.54E-04  5.30E-06  4.14E-04  0.00E+00  0.00E+00  1.11E-05  8.68E-04  6.11E-03  0.44641
    886.   11.287  5.73E-06  4.49E-04  5.31E-06  4.17E-04  0.00E+00  0.00E+00  1.10E-05  8.66E-04  6.13E-03  0.44841
    888.   11.261  5.94E-06  4.69E-04  5.01E-06  3.95E-04  0.00E+00  0.00E+00  1.10E-05  8.64E-04  6.15E-03  0.42475
    890.   11.236  5.67E-06  4.49E-04  5.39E-06  4.27E-04  0.00E+00  0.00E+00  1.11E-05  8.76E-04  6.18E-03  0.45822
    892.   11.211  5.09E-06  4.05E-04  6.06E-06  4.82E-04  0.00E+00  0.00E+00  1.12E-05  8.87E-04  6.20E-03  0.51666
    894.   11.186  4.78E-06  3.82E-04  6.40E-06  5.12E-04  0.00E+00  0.00E+00  1.12E-05  8.94E-04  6.22E-03  0.54761
    896.   11.161  4.87E-06  3.91E-04  6.26E-06  5.02E-04  0.00E+00  0.00E+00  1.11E-05  8.94E-04  6.24E-03  0.53681
    898.   11.136  4.94E-06  3.98E-04  6.14E-06  4.95E-04  0.00E+00  0.00E+00  1.11E-05  8.93E-04  6.27E-03  0.52831
    900.   11.111  4.70E-06  3.81E-04  6.38E-06  5.16E-04  0.00E+00  0.00E+00  1.11E-05  8.98E-04  6.29E-03  0.55028
  iv          905
1                                             RADIANCE(WATTS/CM2-STER-XXX)
0  FREQ   WAVLEN    PATH THERMAL      SURFACE EMISSION    SURFACE REFLECTED     TOTAL RADIANCE   INTEGRAL    TOTAL
  (CM-1) (MICRN)    (CM-1)   (MICRN)    (CM-1)   (MICRN)    (CM-1)   (MICRN)    (CM-1)   (MICRN)    (CM-1)   TRANS

    902.   11.086  4.63E-06  3.77E-04  6.43E-06  5.23E-04  0.00E+00  0.00E+00  1.11E-05  9.00E-04  6.31E-03  0.55636
    904.   11.062  4.76E-06  3.89E-04  6.23E-06  5.09E-04  0.00E+00  0.00E+00  1.10E-05  8.98E-04  6.33E-03  0.54073
    906.   11.038  5.10E-06  4.18E-04  5.77E-06  4.74E-04  0.00E+00  0.00E+00  1.09E-05  8.92E-04  6.35E-03  0.50239
    908.   11.013  5.54E-06  4.57E-04  5.11E-06  4.21E-04  0.00E+00  0.00E+00  1.07E-05  8.78E-04  6.37E-03  0.44643
    910.   10.989  5.36E-06  4.44E-04  5.28E-06  4.37E-04  0.00E+00  0.00E+00  1.06E-05  8.81E-04  6.40E-03  0.46302
    912.   10.965  4.71E-06  3.92E-04  6.11E-06  5.08E-04  0.00E+00  0.00E+00  1.08E-05  9.00E-04  6.42E-03  0.53691
    914.   10.941  4.72E-06  3.95E-04  6.04E-06  5.05E-04  0.00E+00  0.00E+00  1.08E-05  8.99E-04  6.44E-03  0.53301
    916.   10.917  4.61E-06  3.87E-04  6.14E-06  5.15E-04  0.00E+00  0.00E+00  1.07E-05  9.02E-04  6.46E-03  0.54301
    918.   10.893  4.70E-06  3.96E-04  5.99E-06  5.04E-04  0.00E+00  0.00E+00  1.07E-05  9.00E-04  6.48E-03  0.53109
    920.   10.870  4.84E-06  4.10E-04  5.74E-06  4.85E-04  0.00E+00  0.00E+00  1.06E-05  8.96E-04  6.50E-03  0.51054
    922.   10.846  5.26E-06  4.47E-04  5.13E-06  4.36E-04  0.00E+00  0.00E+00  1.04E-05  8.83E-04  6.52E-03  0.45846
    924.   10.823  5.09E-06  4.35E-04  5.30E-06  4.52E-04  0.00E+00  0.00E+00  1.04E-05  8.87E-04  6.54E-03  0.47473
    926.   10.799  4.72E-06  4.05E-04  5.73E-06  4.92E-04  0.00E+00  0.00E+00  1.05E-05  8.97E-04  6.57E-03  0.51538
    928.   10.776  4.40E-06  3.79E-04  6.13E-06  5.28E-04  0.00E+00  0.00E+00  1.05E-05  9.07E-04  6.59E-03  0.55261
    930.   10.753  4.38E-06  3.79E-04  6.11E-06  5.28E-04  0.00E+00  0.00E+00  1.05E-05  9.07E-04  6.61E-03  0.55245
    932.   10.730  4.24E-06  3.68E-04  6.23E-06  5.41E-04  0.00E+00  0.00E+00  1.05E-05  9.09E-04  6.63E-03  0.56571
    934.   10.707  4.19E-06  3.65E-04  6.25E-06  5.45E-04  0.00E+00  0.00E+00  1.04E-05  9.11E-04  6.65E-03  0.56902
    936.   10.684  4.19E-06  3.67E-04  6.20E-06  5.43E-04  0.00E+00  0.00E+00  1.04E-05  9.11E-04  6.67E-03  0.56629
    938.   10.661  4.18E-06  3.68E-04  6.17E-06  5.43E-04  0.00E+00  0.00E+00  1.03E-05  9.11E-04  6.69E-03  0.56509
    940.   10.638  4.32E-06  3.81E-04  5.93E-06  5.24E-04  0.00E+00  0.00E+00  1.02E-05  9.05E-04  6.71E-03  0.54505
    942.   10.616  4.35E-06  3.86E-04  5.80E-06  5.15E-04  0.00E+00  0.00E+00  1.02E-05  9.01E-04  6.73E-03  0.53540
    944.   10.593  4.34E-06  3.87E-04  5.80E-06  5.16E-04  0.00E+00  0.00E+00  1.01E-05  9.03E-04  6.75E-03  0.53641
    946.   10.571  4.54E-06  4.06E-04  5.47E-06  4.90E-04  0.00E+00  0.00E+00  1.00E-05  8.96E-04  6.77E-03  0.50813
    948.   10.549  4.79E-06  4.31E-04  5.01E-06  4.51E-04  0.00E+00  0.00E+00  9.81E-06  8.81E-04  6.79E-03  0.46728
    950.   10.526  4.25E-06  3.83E-04  5.73E-06  5.17E-04  0.00E+00  0.00E+00  9.98E-06  9.01E-04  6.81E-03  0.53619
    952.   10.504  4.15E-06  3.76E-04  5.87E-06  5.32E-04  0.00E+00  0.00E+00  1.00E-05  9.08E-04  6.83E-03  0.55056
    954.   10.482  4.46E-06  4.06E-04  5.43E-06  4.94E-04  0.00E+00  0.00E+00  9.89E-06  9.00E-04  6.85E-03  0.51109
    956.   10.460  4.26E-06  3.90E-04  5.64E-06  5.16E-04  0.00E+00  0.00E+00  9.90E-06  9.05E-04  6.87E-03  0.53297
    958.   10.438  3.94E-06  3.62E-04  6.06E-06  5.56E-04  0.00E+00  0.00E+00  1.00E-05  9.18E-04  6.89E-03  0.57391
    960.   10.417  3.94E-06  3.63E-04  6.07E-06  5.60E-04  0.00E+00  0.00E+00  1.00E-05  9.23E-04  6.91E-03  0.57741
    962.   10.395  3.65E-06  3.38E-04  6.37E-06  5.90E-04  0.00E+00  0.00E+00  1.00E-05  9.28E-04  6.93E-03  0.60800
    964.   10.373  3.62E-06  3.36E-04  6.32E-06  5.87E-04  0.00E+00  0.00E+00  9.94E-06  9.23E-04  6.95E-03  0.60485
    966.   10.352  3.93E-06  3.67E-04  5.85E-06  5.46E-04  0.00E+00  0.00E+00  9.78E-06  9.13E-04  6.97E-03  0.56172
    968.   10.331  3.87E-06  3.62E-04  5.85E-06  5.48E-04  0.00E+00  0.00E+00  9.72E-06  9.10E-04  6.99E-03  0.56391
    970.   10.309  4.02E-06  3.78E-04  5.60E-06  5.27E-04  0.00E+00  0.00E+00  9.62E-06  9.05E-04  7.01E-03  0.54130
    972.   10.288  4.48E-06  4.23E-04  4.95E-06  4.68E-04  0.00E+00  0.00E+00  9.43E-06  8.91E-04  7.03E-03  0.48044
    974.   10.267  4.33E-06  4.11E-04  5.10E-06  4.84E-04  0.00E+00  0.00E+00  9.43E-06  8.95E-04  7.05E-03  0.49696
    976.   10.246  4.36E-06  4.15E-04  4.98E-06  4.74E-04  0.00E+00  0.00E+00  9.34E-06  8.90E-04  7.07E-03  0.48664
    978.   10.225  3.87E-06  3.71E-04  5.58E-06  5.34E-04  0.00E+00  0.00E+00  9.46E-06  9.05E-04  7.08E-03  0.54807
    980.   10.204  3.48E-06  3.35E-04  6.05E-06  5.81E-04  0.00E+00  0.00E+00  9.53E-06  9.16E-04  7.10E-03  0.59555
    982.   10.183  3.50E-06  3.38E-04  5.97E-06  5.76E-04  0.00E+00  0.00E+00  9.47E-06  9.13E-04  7.12E-03  0.58974
    984.   10.163  3.42E-06  3.31E-04  6.05E-06  5.85E-04  0.00E+00  0.00E+00  9.46E-06  9.16E-04  7.14E-03  0.59951
    986.   10.142  3.15E-06  3.06E-04  6.33E-06  6.15E-04  0.00E+00  0.00E+00  9.47E-06  9.21E-04  7.16E-03  0.62955
    988.   10.121  3.06E-06  2.98E-04  6.34E-06  6.19E-04  0.00E+00  0.00E+00  9.40E-06  9.17E-04  7.18E-03  0.63326
    990.   10.101  3.05E-06  2.98E-04  6.26E-06  6.14E-04  0.00E+00  0.00E+00  9.31E-06  9.12E-04  7.20E-03  0.62765
    992.   10.081  2.95E-06  2.90E-04  6.25E-06  6.15E-04  0.00E+00  0.00E+00  9.20E-06  9.05E-04  7.22E-03  0.62875
    994.   10.060  2.91E-06  2.88E-04  6.17E-06  6.09E-04  0.00E+00  0.00E+00  9.08E-06  8.97E-04  7.23E-03  0.62280
    996.   10.040  2.89E-06  2.87E-04  6.04E-06  5.99E-04  0.00E+00  0.00E+00  8.93E-06  8.86E-04  7.25E-03  0.61158
    998.   10.020  3.17E-06  3.16E-04  5.52E-06  5.50E-04  0.00E+00  0.00E+00  8.69E-06  8.66E-04  7.27E-03  0.56106
   1000.   10.000  3.38E-06  3.38E-04  5.11E-06  5.11E-04  0.00E+00  0.00E+00  8.48E-06  8.48E-04  7.29E-03  0.52118
  iv         1005
1                                             RADIANCE(WATTS/CM2-STER-XXX)
0  FREQ   WAVLEN    PATH THERMAL      SURFACE EMISSION    SURFACE REFLECTED     TOTAL RADIANCE   INTEGRAL    TOTAL
  (CM-1) (MICRN)    (CM-1)   (MICRN)    (CM-1)   (MICRN)    (CM-1)   (MICRN)    (CM-1)   (MICRN)    (CM-1)   TRANS

   1002.    9.980  3.09E-06  3.10E-04  5.24E-06  5.26E-04  0.00E+00  0.00E+00  8.33E-06  8.36E-04  7.30E-03  0.53658
   1004.    9.960  3.13E-06  3.16E-04  4.99E-06  5.03E-04  0.00E+00  0.00E+00  8.12E-06  8.19E-04  7.32E-03  0.51327
   1006.    9.940  2.98E-06  3.01E-04  4.92E-06  4.98E-04  0.00E+00  0.00E+00  7.90E-06  8.00E-04  7.34E-03  0.50821
   1008.    9.921  2.99E-06  3.03E-04  4.76E-06  4.84E-04  0.00E+00  0.00E+00  7.75E-06  7.87E-04  7.35E-03  0.49347
   1010.    9.901  3.40E-06  3.47E-04  4.02E-06  4.10E-04  0.00E+00  0.00E+00  7.42E-06  7.57E-04  7.37E-03  0.41754
   1012.    9.881  3.34E-06  3.42E-04  3.80E-06  3.89E-04  0.00E+00  0.00E+00  7.14E-06  7.31E-04  7.38E-03  0.39631
   1014.    9.862  3.30E-06  3.39E-04  3.61E-06  3.71E-04  0.00E+00  0.00E+00  6.91E-06  7.11E-04  7.39E-03  0.37845
   1016.    9.843  3.19E-06  3.30E-04  3.59E-06  3.70E-04  0.00E+00  0.00E+00  6.78E-06  7.00E-04  7.41E-03  0.37695
   1018.    9.823  3.20E-06  3.32E-04  3.28E-06  3.40E-04  0.00E+00  0.00E+00  6.48E-06  6.72E-04  7.42E-03  0.34631
   1020.    9.804  2.87E-06  2.98E-04  3.47E-06  3.61E-04  0.00E+00  0.00E+00  6.33E-06  6.59E-04  7.43E-03  0.36713
   1022.    9.785  2.71E-06  2.83E-04  3.47E-06  3.62E-04  0.00E+00  0.00E+00  6.18E-06  6.45E-04  7.45E-03  0.36860
   1024.    9.766  2.63E-06  2.75E-04  3.45E-06  3.62E-04  0.00E+00  0.00E+00  6.07E-06  6.37E-04  7.46E-03  0.36807
   1026.    9.747  2.69E-06  2.83E-04  3.35E-06  3.53E-04  0.00E+00  0.00E+00  6.04E-06  6.36E-04  7.47E-03  0.35905
   1028.    9.728  3.14E-06  3.32E-04  2.68E-06  2.83E-04  0.00E+00  0.00E+00  5.82E-06  6.15E-04  7.48E-03  0.28792
   1030.    9.709  3.16E-06  3.35E-04  2.55E-06  2.70E-04  0.00E+00  0.00E+00  5.71E-06  6.06E-04  7.49E-03  0.27519
   1032.    9.690  2.81E-06  2.99E-04  3.02E-06  3.22E-04  0.00E+00  0.00E+00  5.83E-06  6.21E-04  7.50E-03  0.32770
   1034.    9.671  2.60E-06  2.78E-04  3.17E-06  3.39E-04  0.00E+00  0.00E+00  5.77E-06  6.17E-04  7.52E-03  0.34525
   1036.    9.653  2.56E-06  2.74E-04  3.01E-06  3.23E-04  0.00E+00  0.00E+00  5.57E-06  5.98E-04  7.53E-03  0.32905
   1038.    9.634  2.69E-06  2.90E-04  2.59E-06  2.79E-04  0.00E+00  0.00E+00  5.28E-06  5.69E-04  7.54E-03  0.28344
   1040.    9.615  2.67E-06  2.89E-04  2.51E-06  2.71E-04  0.00E+00  0.00E+00  5.18E-06  5.60E-04  7.55E-03  0.27610
   1042.    9.597  2.61E-06  2.83E-04  3.73E-06  4.05E-04  0.00E+00  0.00E+00  6.34E-06  6.88E-04  7.56E-03  0.41250
   1044.    9.579  2.57E-06  2.80E-04  4.54E-06  4.95E-04  0.00E+00  0.00E+00  7.11E-06  7.75E-04  7.57E-03  0.50340
   1046.    9.560  2.45E-06  2.68E-04  3.74E-06  4.09E-04  0.00E+00  0.00E+00  6.19E-06  6.77E-04  7.59E-03  0.41595
   1048.    9.542  2.61E-06  2.86E-04  2.68E-06  2.95E-04  0.00E+00  0.00E+00  5.29E-06  5.81E-04  7.60E-03  0.29973
   1050.    9.524  2.80E-06  3.09E-04  2.08E-06  2.30E-04  0.00E+00  0.00E+00  4.89E-06  5.39E-04  7.61E-03  0.23393
   1052.    9.506  2.64E-06  2.93E-04  2.11E-06  2.33E-04  0.00E+00  0.00E+00  4.75E-06  5.26E-04  7.62E-03  0.23768
   1054.    9.488  2.54E-06  2.82E-04  2.13E-06  2.37E-04  0.00E+00  0.00E+00  4.66E-06  5.18E-04  7.63E-03  0.24081
   1056.    9.470  2.63E-06  2.94E-04  2.02E-06  2.25E-04  0.00E+00  0.00E+00  4.65E-06  5.19E-04  7.64E-03  0.22929
   1058.    9.452  2.68E-06  3.00E-04  2.32E-06  2.59E-04  0.00E+00  0.00E+00  4.99E-06  5.59E-04  7.65E-03  0.26407
   1060.    9.434  2.79E-06  3.13E-04  2.59E-06  2.91E-04  0.00E+00  0.00E+00  5.38E-06  6.04E-04  7.66E-03  0.29644
   1062.    9.416  2.74E-06  3.09E-04  3.05E-06  3.44E-04  0.00E+00  0.00E+00  5.79E-06  6.53E-04  7.67E-03  0.35021
   1064.    9.398  2.86E-06  3.23E-04  3.48E-06  3.94E-04  0.00E+00  0.00E+00  6.33E-06  7.17E-04  7.68E-03  0.40118
   1066.    9.381  3.39E-06  3.85E-04  3.30E-06  3.75E-04  0.00E+00  0.00E+00  6.69E-06  7.61E-04  7.69E-03  0.38271
   1068.    9.363  2.94E-06  3.36E-04  4.25E-06  4.84E-04  0.00E+00  0.00E+00  7.19E-06  8.20E-04  7.71E-03  0.49422
   1070.    9.346  2.44E-06  2.79E-04  5.16E-06  5.91E-04  0.00E+00  0.00E+00  7.60E-06  8.70E-04  7.72E-03  0.60252
   1072.    9.328  2.91E-06  3.34E-04  4.72E-06  5.42E-04  0.00E+00  0.00E+00  7.63E-06  8.76E-04  7.74E-03  0.55320
   1074.    9.311  3.59E-06  4.14E-04  3.78E-06  4.36E-04  0.00E+00  0.00E+00  7.37E-06  8.50E-04  7.75E-03  0.44488
   1076.    9.294  3.03E-06  3.51E-04  4.45E-06  5.15E-04  0.00E+00  0.00E+00  7.48E-06  8.66E-04  7.77E-03  0.52595
   1078.    9.276  2.46E-06  2.86E-04  5.22E-06  6.06E-04  0.00E+00  0.00E+00  7.68E-06  8.93E-04  7.78E-03  0.61949
   1080.    9.259  2.53E-06  2.95E-04  5.02E-06  5.86E-04  0.00E+00  0.00E+00  7.55E-06  8.81E-04  7.80E-03  0.59845
   1082.    9.242  2.47E-06  2.89E-04  5.09E-06  5.96E-04  0.00E+00  0.00E+00  7.56E-06  8.86E-04  7.81E-03  0.60947
   1084.    9.225  2.42E-06  2.85E-04  5.24E-06  6.16E-04  0.00E+00  0.00E+00  7.66E-06  9.01E-04  7.83E-03  0.62964
   1086.    9.208  2.46E-06  2.90E-04  5.14E-06  6.07E-04  0.00E+00  0.00E+00  7.60E-06  8.97E-04  7.84E-03  0.62067
   1088.    9.191  2.27E-06  2.68E-04  5.37E-06  6.36E-04  0.00E+00  0.00E+00  7.64E-06  9.04E-04  7.86E-03  0.65062
   1090.    9.174  2.75E-06  3.26E-04  4.75E-06  5.64E-04  0.00E+00  0.00E+00  7.49E-06  8.90E-04  7.88E-03  0.57703
   1092.    9.158  2.78E-06  3.31E-04  4.72E-06  5.63E-04  0.00E+00  0.00E+00  7.50E-06  8.94E-04  7.89E-03  0.57712
   1094.    9.141  1.95E-06  2.33E-04  5.76E-06  6.89E-04  0.00E+00  0.00E+00  7.70E-06  9.22E-04  7.91E-03  0.70629
   1096.    9.124  1.79E-06  2.15E-04  5.94E-06  7.14E-04  0.00E+00  0.00E+00  7.73E-06  9.28E-04  7.92E-03  0.73163
   1098.    9.107  2.22E-06  2.68E-04  5.36E-06  6.47E-04  0.00E+00  0.00E+00  7.59E-06  9.15E-04  7.94E-03  0.66306
   1100.    9.091  3.36E-06  4.07E-04  3.79E-06  4.58E-04  0.00E+00  0.00E+00  7.15E-06  8.65E-04  7.95E-03  0.47004
  iv         1105
1                                             RADIANCE(WATTS/CM2-STER-XXX)
0  FREQ   WAVLEN    PATH THERMAL      SURFACE EMISSION    SURFACE REFLECTED     TOTAL RADIANCE   INTEGRAL    TOTAL
  (CM-1) (MICRN)    (CM-1)   (MICRN)    (CM-1)   (MICRN)    (CM-1)   (MICRN)    (CM-1)   (MICRN)    (CM-1)   TRANS

   1102.    9.074  2.89E-06  3.51E-04  4.39E-06  5.33E-04  0.00E+00  0.00E+00  7.28E-06  8.84E-04  7.97E-03  0.54799
   1104.    9.058  2.12E-06  2.58E-04  5.44E-06  6.63E-04  0.00E+00  0.00E+00  7.56E-06  9.21E-04  7.98E-03  0.68112
   1106.    9.042  3.00E-06  3.67E-04  4.21E-06  5.16E-04  0.00E+00  0.00E+00  7.21E-06  8.82E-04  7.99E-03  0.52973
   1108.    9.025  2.79E-06  3.43E-04  4.43E-06  5.44E-04  0.00E+00  0.00E+00  7.22E-06  8.86E-04  8.01E-03  0.55971
   1110.    9.009  2.49E-06  3.06E-04  4.83E-06  5.95E-04  0.00E+00  0.00E+00  7.31E-06  9.01E-04  8.02E-03  0.61208
   1112.    8.993  2.96E-06  3.66E-04  4.06E-06  5.02E-04  0.00E+00  0.00E+00  7.02E-06  8.68E-04  8.04E-03  0.51743
   1114.    8.977  2.08E-06  2.59E-04  5.21E-06  6.47E-04  0.00E+00  0.00E+00  7.30E-06  9.06E-04  8.05E-03  0.66690
   1116.    8.961  1.86E-06  2.32E-04  5.51E-06  6.87E-04  0.00E+00  0.00E+00  7.37E-06  9.18E-04  8.07E-03  0.70826
   1118.    8.945  2.17E-06  2.72E-04  5.07E-06  6.34E-04  0.00E+00  0.00E+00  7.25E-06  9.06E-04  8.08E-03  0.65441
   1120.    8.929  2.93E-06  3.67E-04  3.92E-06  4.92E-04  0.00E+00  0.00E+00  6.85E-06  8.59E-04  8.10E-03  0.50780
   1122.    8.913  2.95E-06  3.72E-04  3.85E-06  4.85E-04  0.00E+00  0.00E+00  6.81E-06  8.57E-04  8.11E-03  0.50169
   1124.    8.897  1.91E-06  2.41E-04  5.27E-06  6.66E-04  0.00E+00  0.00E+00  7.18E-06  9.07E-04  8.12E-03  0.68854
   1126.    8.881  1.65E-06  2.09E-04  5.55E-06  7.04E-04  0.00E+00  0.00E+00  7.20E-06  9.13E-04  8.14E-03  0.72844
   1128.    8.865  1.62E-06  2.06E-04  5.58E-06  7.10E-04  0.00E+00  0.00E+00  7.19E-06  9.15E-04  8.15E-03  0.73521
   1130.    8.850  1.70E-06  2.17E-04  5.45E-06  6.96E-04  0.00E+00  0.00E+00  7.15E-06  9.13E-04  8.17E-03  0.72170
   1132.    8.834  1.92E-06  2.46E-04  5.18E-06  6.64E-04  0.00E+00  0.00E+00  7.10E-06  9.10E-04  8.18E-03  0.68856
   1134.    8.818  3.20E-06  4.11E-04  3.39E-06  4.36E-04  0.00E+00  0.00E+00  6.59E-06  8.47E-04  8.19E-03  0.45169
   1136.    8.803  4.39E-06  5.66E-04  1.38E-06  1.78E-04  0.00E+00  0.00E+00  5.77E-06  7.44E-04  8.21E-03  0.18470
   1138.    8.787  3.38E-06  4.38E-04  2.99E-06  3.87E-04  0.00E+00  0.00E+00  6.37E-06  8.26E-04  8.22E-03  0.40323
   1140.    8.772  2.08E-06  2.71E-04  4.91E-06  6.39E-04  0.00E+00  0.00E+00  7.00E-06  9.09E-04  8.23E-03  0.66474
   1142.    8.757  1.90E-06  2.48E-04  5.10E-06  6.65E-04  0.00E+00  0.00E+00  7.00E-06  9.12E-04  8.25E-03  0.69246
   1144.    8.741  1.67E-06  2.19E-04  5.33E-06  6.98E-04  0.00E+00  0.00E+00  7.00E-06  9.17E-04  8.26E-03  0.72736
   1146.    8.726  1.65E-06  2.17E-04  5.33E-06  7.00E-04  0.00E+00  0.00E+00  6.98E-06  9.17E-04  8.27E-03  0.73023
   1148.    8.711  2.52E-06  3.32E-04  4.09E-06  5.38E-04  0.00E+00  0.00E+00  6.60E-06  8.70E-04  8.29E-03  0.56187
   1150.    8.696  3.30E-06  4.36E-04  3.03E-06  4.00E-04  0.00E+00  0.00E+00  6.33E-06  8.37E-04  8.30E-03  0.41816
   1152.    8.681  3.34E-06  4.43E-04  2.93E-06  3.89E-04  0.00E+00  0.00E+00  6.27E-06  8.32E-04  8.31E-03  0.40674
   1154.    8.666  2.37E-06  3.16E-04  4.25E-06  5.66E-04  0.00E+00  0.00E+00  6.62E-06  8.82E-04  8.33E-03  0.59321
   1156.    8.651  1.60E-06  2.14E-04  5.23E-06  7.00E-04  0.00E+00  0.00E+00  6.84E-06  9.13E-04  8.34E-03  0.73333
   1158.    8.636  1.51E-06  2.03E-04  5.31E-06  7.12E-04  0.00E+00  0.00E+00  6.82E-06  9.15E-04  8.35E-03  0.74706
   1160.    8.621  1.56E-06  2.10E-04  5.22E-06  7.02E-04  0.00E+00  0.00E+00  6.78E-06  9.12E-04  8.37E-03  0.73716
   1162.    8.606  1.74E-06  2.36E-04  4.97E-06  6.71E-04  0.00E+00  0.00E+00  6.72E-06  9.07E-04  8.38E-03  0.70560
   1164.    8.591  2.86E-06  3.87E-04  3.32E-06  4.50E-04  0.00E+00  0.00E+00  6.18E-06  8.37E-04  8.39E-03  0.47321
   1166.    8.576  3.31E-06  4.50E-04  2.66E-06  3.62E-04  0.00E+00  0.00E+00  5.97E-06  8.12E-04  8.40E-03  0.38133
   1168.    8.562  2.13E-06  2.91E-04  4.38E-06  5.98E-04  0.00E+00  0.00E+00  6.52E-06  8.89E-04  8.42E-03  0.63069
   1170.    8.547  2.02E-06  2.76E-04  4.54E-06  6.21E-04  0.00E+00  0.00E+00  6.55E-06  8.97E-04  8.43E-03  0.65556
   1172.    8.532  2.86E-06  3.93E-04  3.37E-06  4.62E-04  0.00E+00  0.00E+00  6.22E-06  8.55E-04  8.44E-03  0.48819
   1174.    8.518  4.00E-06  5.52E-04  1.25E-06  1.72E-04  0.00E+00  0.00E+00  5.25E-06  7.24E-04  8.45E-03  0.18167
   1176.    8.503  3.52E-06  4.87E-04  2.05E-06  2.84E-04  0.00E+00  0.00E+00  5.57E-06  7.70E-04  8.46E-03  0.30094
   1178.    8.489  2.44E-06  3.38E-04  3.91E-06  5.42E-04  0.00E+00  0.00E+00  6.35E-06  8.81E-04  8.48E-03  0.57504
   1180.    8.475  2.17E-06  3.02E-04  4.18E-06  5.82E-04  0.00E+00  0.00E+00  6.35E-06  8.84E-04  8.49E-03  0.61807
   1182.    8.460  2.03E-06  2.84E-04  4.33E-06  6.05E-04  0.00E+00  0.00E+00  6.36E-06  8.88E-04  8.50E-03  0.64250
   1184.    8.446  2.41E-06  3.38E-04  3.86E-06  5.41E-04  0.00E+00  0.00E+00  6.27E-06  8.79E-04  8.51E-03  0.57502
   1186.    8.432  3.52E-06  4.95E-04  1.98E-06  2.79E-04  0.00E+00  0.00E+00  5.50E-06  7.74E-04  8.53E-03  0.29668
   1188.    8.418  3.77E-06  5.32E-04  1.54E-06  2.17E-04  0.00E+00  0.00E+00  5.31E-06  7.49E-04  8.54E-03  0.23195
   1190.    8.403  2.78E-06  3.94E-04  3.23E-06  4.57E-04  0.00E+00  0.00E+00  6.01E-06  8.51E-04  8.55E-03  0.48810
   1192.    8.389  2.21E-06  3.14E-04  3.93E-06  5.59E-04  0.00E+00  0.00E+00  6.15E-06  8.73E-04  8.56E-03  0.59779
   1194.    8.375  2.14E-06  3.05E-04  4.02E-06  5.73E-04  0.00E+00  0.00E+00  6.15E-06  8.77E-04  8.57E-03  0.61274
   1196.    8.361  2.60E-06  3.72E-04  3.28E-06  4.69E-04  0.00E+00  0.00E+00  5.88E-06  8.41E-04  8.58E-03  0.50213
   1198.    8.347  3.47E-06  4.98E-04  1.79E-06  2.57E-04  0.00E+00  0.00E+00  5.26E-06  7.55E-04  8.60E-03  0.27556
   1200.    8.333  2.89E-06  4.16E-04  2.80E-06  4.03E-04  0.00E+00  0.00E+00  5.69E-06  8.19E-04  8.61E-03  0.43377
  iv         1205
1                                             RADIANCE(WATTS/CM2-STER-XXX)
0  FREQ   WAVLEN    PATH THERMAL      SURFACE EMISSION    SURFACE REFLECTED     TOTAL RADIANCE   INTEGRAL    TOTAL
  (CM-1) (MICRN)    (CM-1)   (MICRN)    (CM-1)   (MICRN)    (CM-1)   (MICRN)    (CM-1)   (MICRN)    (CM-1)   TRANS

   1202.    8.319  1.85E-06  2.68E-04  4.25E-06  6.13E-04  0.00E+00  0.00E+00  6.10E-06  8.81E-04  8.62E-03  0.65997
   1204.    8.306  1.83E-06  2.66E-04  4.22E-06  6.12E-04  0.00E+00  0.00E+00  6.06E-06  8.78E-04  8.63E-03  0.65948
   1206.    8.292  2.34E-06  3.41E-04  3.55E-06  5.16E-04  0.00E+00  0.00E+00  5.89E-06  8.57E-04  8.64E-03  0.55635
   1208.    8.278  2.50E-06  3.65E-04  3.35E-06  4.88E-04  0.00E+00  0.00E+00  5.85E-06  8.53E-04  8.65E-03  0.52721
   1210.    8.264  3.19E-06  4.67E-04  1.97E-06  2.88E-04  0.00E+00  0.00E+00  5.15E-06  7.55E-04  8.66E-03  0.31078
   1212.    8.251  3.76E-06  5.52E-04  6.27E-07  9.21E-05  0.00E+00  0.00E+00  4.38E-06  6.44E-04  8.67E-03  0.09974
   1214.    8.237  3.53E-06  5.20E-04  1.56E-06  2.30E-04  0.00E+00  0.00E+00  5.09E-06  7.50E-04  8.68E-03  0.24987
   1216.    8.224  2.98E-06  4.41E-04  2.53E-06  3.75E-04  0.00E+00  0.00E+00  5.52E-06  8.16E-04  8.69E-03  0.40700
   1218.    8.210  3.41E-06  5.06E-04  1.61E-06  2.38E-04  0.00E+00  0.00E+00  5.02E-06  7.44E-04  8.70E-03  0.25870
   1220.    8.197  3.54E-06  5.26E-04  1.28E-06  1.90E-04  0.00E+00  0.00E+00  4.81E-06  7.16E-04  8.71E-03  0.20715
   1222.    8.183  3.33E-06  4.98E-04  1.78E-06  2.66E-04  0.00E+00  0.00E+00  5.12E-06  7.64E-04  8.72E-03  0.29051
   1224.    8.170  3.59E-06  5.39E-04  9.41E-07  1.41E-04  0.00E+00  0.00E+00  4.54E-06  6.80E-04  8.73E-03  0.15370
   1226.    8.157  3.50E-06  5.26E-04  8.68E-07  1.30E-04  0.00E+00  0.00E+00  4.37E-06  6.57E-04  8.74E-03  0.14303
   1228.    8.143  2.86E-06  4.31E-04  2.25E-06  3.39E-04  0.00E+00  0.00E+00  5.11E-06  7.70E-04  8.75E-03  0.37170
   1230.    8.130  2.17E-06  3.29E-04  3.12E-06  4.72E-04  0.00E+00  0.00E+00  5.29E-06  8.01E-04  8.76E-03  0.51763
   1232.    8.117  1.86E-06  2.82E-04  3.69E-06  5.60E-04  0.00E+00  0.00E+00  5.55E-06  8.42E-04  8.77E-03  0.61537
   1234.    8.104  1.94E-06  2.96E-04  3.52E-06  5.35E-04  0.00E+00  0.00E+00  5.46E-06  8.31E-04  8.79E-03  0.58883
   1236.    8.091  2.43E-06  3.72E-04  2.47E-06  3.78E-04  0.00E+00  0.00E+00  4.91E-06  7.50E-04  8.80E-03  0.41582
   1238.    8.078  3.00E-06  4.59E-04  1.64E-06  2.51E-04  0.00E+00  0.00E+00  4.63E-06  7.10E-04  8.80E-03  0.27681
   1240.    8.065  3.21E-06  4.94E-04  1.46E-06  2.24E-04  0.00E+00  0.00E+00  4.67E-06  7.19E-04  8.81E-03  0.24791
   1242.    8.052  3.20E-06  4.93E-04  1.10E-06  1.69E-04  0.00E+00  0.00E+00  4.29E-06  6.62E-04  8.82E-03  0.18688
   1244.    8.039  3.25E-06  5.03E-04  3.70E-07  5.73E-05  0.00E+00  0.00E+00  3.62E-06  5.60E-04  8.83E-03  0.06344
   1246.    8.026  3.00E-06  4.65E-04  9.99E-07  1.55E-04  0.00E+00  0.00E+00  4.00E-06  6.20E-04  8.84E-03  0.17240
   1248.    8.013  2.80E-06  4.36E-04  1.50E-06  2.34E-04  0.00E+00  0.00E+00  4.30E-06  6.69E-04  8.85E-03  0.26009
   1250.    8.000  2.84E-06  4.44E-04  1.62E-06  2.53E-04  0.00E+00  0.00E+00  4.46E-06  6.97E-04  8.86E-03  0.28143
   1252.    7.987  3.09E-06  4.85E-04  1.19E-06  1.86E-04  0.00E+00  0.00E+00  4.28E-06  6.71E-04  8.86E-03  0.20785
   1254.    7.974  3.00E-06  4.72E-04  1.01E-06  1.60E-04  0.00E+00  0.00E+00  4.02E-06  6.32E-04  8.87E-03  0.17836
   1256.    7.962  3.22E-06  5.08E-04  1.08E-06  1.70E-04  0.00E+00  0.00E+00  4.30E-06  6.78E-04  8.88E-03  0.19029
   1258.    7.949  3.40E-06  5.38E-04  4.56E-07  7.22E-05  0.00E+00  0.00E+00  3.86E-06  6.11E-04  8.89E-03  0.08078
   1260.    7.937  2.77E-06  4.39E-04  6.95E-08  1.10E-05  0.00E+00  0.00E+00  2.83E-06  4.50E-04  8.89E-03  0.01236
   1262.    7.924  2.92E-06  4.65E-04  2.02E-07  3.22E-05  0.00E+00  0.00E+00  3.12E-06  4.97E-04  8.90E-03  0.03632
   1264.    7.911  3.18E-06  5.08E-04  2.16E-07  3.46E-05  0.00E+00  0.00E+00  3.40E-06  5.43E-04  8.91E-03  0.03889
   1266.    7.899  2.93E-06  4.69E-04  3.30E-08  5.29E-06  0.00E+00  0.00E+00  2.96E-06  4.74E-04  8.91E-03  0.00594
   1268.    7.886  2.52E-06  4.05E-04  1.15E-09  1.84E-07  0.00E+00  0.00E+00  2.52E-06  4.05E-04  8.92E-03  0.00021
   1270.    7.874  2.33E-06  3.76E-04  3.94E-10  6.36E-08  0.00E+00  0.00E+00  2.33E-06  3.76E-04  8.92E-03  0.00007
   1272.    7.862  2.58E-06  4.17E-04  3.70E-08  5.98E-06  0.00E+00  0.00E+00  2.61E-06  4.23E-04  8.93E-03  0.00682
   1274.    7.849  3.09E-06  5.01E-04  4.00E-07  6.49E-05  0.00E+00  0.00E+00  3.49E-06  5.66E-04  8.93E-03  0.07391
   1276.    7.837  2.83E-06  4.61E-04  9.48E-07  1.54E-04  0.00E+00  0.00E+00  3.78E-06  6.15E-04  8.94E-03  0.17590
   1278.    7.825  2.93E-06  4.79E-04  1.11E-06  1.82E-04  0.00E+00  0.00E+00  4.05E-06  6.61E-04  8.95E-03  0.20699
   1280.    7.813  3.13E-06  5.13E-04  5.05E-07  8.28E-05  0.00E+00  0.00E+00  3.63E-06  5.96E-04  8.96E-03  0.09436
   1282.    7.800  2.81E-06  4.63E-04  2.13E-07  3.51E-05  0.00E+00  0.00E+00  3.03E-06  4.98E-04  8.96E-03  0.04015
   1284.    7.788  2.97E-06  4.90E-04  1.70E-07  2.80E-05  0.00E+00  0.00E+00  3.14E-06  5.18E-04  8.97E-03  0.03211
   1286.    7.776  2.99E-06  4.94E-04  6.54E-08  1.08E-05  0.00E+00  0.00E+00  3.05E-06  5.05E-04  8.98E-03  0.01240
   1288.    7.764  2.35E-06  3.90E-04  7.95E-09  1.32E-06  0.00E+00  0.00E+00  2.36E-06  3.91E-04  8.98E-03  0.00151
   1290.    7.752  2.87E-06  4.77E-04  3.87E-08  6.44E-06  0.00E+00  0.00E+00  2.90E-06  4.83E-04  8.99E-03  0.00745
   1292.    7.740  3.11E-06  5.19E-04  1.59E-07  2.66E-05  0.00E+00  0.00E+00  3.27E-06  5.46E-04  8.99E-03  0.03073
   1294.    7.728  2.76E-06  4.63E-04  2.15E-07  3.60E-05  0.00E+00  0.00E+00  2.98E-06  4.99E-04  9.00E-03  0.04159
   1296.    7.716  2.45E-06  4.12E-04  9.70E-08  1.63E-05  0.00E+00  0.00E+00  2.55E-06  4.28E-04  9.00E-03  0.01884
   1298.    7.704  2.44E-06  4.11E-04  2.70E-07  4.55E-05  0.00E+00  0.00E+00  2.71E-06  4.57E-04  9.01E-03  0.05296
   1300.    7.692  2.40E-06  4.05E-04  4.08E-07  6.90E-05  0.00E+00  0.00E+00  2.80E-06  4.74E-04  9.02E-03  0.08026
  iv         1305
1                                             RADIANCE(WATTS/CM2-STER-XXX)
0  FREQ   WAVLEN    PATH THERMAL      SURFACE EMISSION    SURFACE REFLECTED     TOTAL RADIANCE   INTEGRAL    TOTAL
  (CM-1) (MICRN)    (CM-1)   (MICRN)    (CM-1)   (MICRN)    (CM-1)   (MICRN)    (CM-1)   (MICRN)    (CM-1)   TRANS

   1302.    7.680  1.93E-06  3.28E-04  2.11E-07  3.58E-05  0.00E+00  0.00E+00  2.15E-06  3.64E-04  9.02E-03  0.04167
   1304.    7.669  1.34E-06  2.29E-04  5.76E-08  9.80E-06  0.00E+00  0.00E+00  1.40E-06  2.38E-04  9.02E-03  0.01142
   1306.    7.657  1.49E-06  2.54E-04  7.12E-09  1.22E-06  0.00E+00  0.00E+00  1.50E-06  2.55E-04  9.03E-03  0.00142
   1308.    7.645  2.41E-06  4.13E-04  3.79E-09  6.48E-07  0.00E+00  0.00E+00  2.42E-06  4.14E-04  9.03E-03  0.00076
   1310.    7.634  2.77E-06  4.75E-04  5.77E-09  9.90E-07  0.00E+00  0.00E+00  2.77E-06  4.76E-04  9.04E-03  0.00116
   1312.    7.622  2.22E-06  3.83E-04  2.16E-09  3.72E-07  0.00E+00  0.00E+00  2.22E-06  3.83E-04  9.04E-03  0.00044
   1314.    7.610  1.94E-06  3.36E-04  3.71E-15  6.41E-13  0.00E+00  0.00E+00  1.94E-06  3.36E-04  9.04E-03  0.00000
   1316.    7.599  1.95E-06  3.38E-04  8.39E-15  1.45E-12  0.00E+00  0.00E+00  1.95E-06  3.38E-04  9.05E-03  0.00000
   1318.    7.587  1.73E-06  3.01E-04  1.50E-13  2.61E-11  0.00E+00  0.00E+00  1.73E-06  3.01E-04  9.05E-03  0.00000
   1320.    7.576  1.80E-06  3.14E-04  4.85E-11  8.46E-09  0.00E+00  0.00E+00  1.80E-06  3.14E-04  9.05E-03  0.00001
   1322.    7.564  2.18E-06  3.81E-04  3.68E-10  6.43E-08  0.00E+00  0.00E+00  2.18E-06  3.81E-04  9.06E-03  0.00008
   1324.    7.553  2.72E-06  4.77E-04  1.24E-08  2.17E-06  0.00E+00  0.00E+00  2.73E-06  4.79E-04  9.06E-03  0.00259
   1326.    7.541  2.61E-06  4.59E-04  1.72E-08  3.02E-06  0.00E+00  0.00E+00  2.63E-06  4.62E-04  9.07E-03  0.00361
   1328.    7.530  2.38E-06  4.20E-04  4.60E-09  8.11E-07  0.00E+00  0.00E+00  2.38E-06  4.20E-04  9.07E-03  0.00097
   1330.    7.519  2.59E-06  4.58E-04  1.09E-08  1.92E-06  0.00E+00  0.00E+00  2.60E-06  4.60E-04  9.08E-03  0.00231
   1332.    7.508  2.24E-06  3.98E-04  1.11E-08  1.98E-06  0.00E+00  0.00E+00  2.25E-06  4.00E-04  9.08E-03  0.00237
   1334.    7.496  2.24E-06  3.99E-04  7.10E-10  1.26E-07  0.00E+00  0.00E+00  2.24E-06  3.99E-04  9.09E-03  0.00015
   1336.    7.485  1.92E-06  3.43E-04  1.11E-10  1.98E-08  0.00E+00  0.00E+00  1.92E-06  3.43E-04  9.09E-03  0.00002
   1338.    7.474  1.24E-06  2.22E-04  4.64E-20  8.31E-18  0.00E+00  0.00E+00  1.24E-06  2.22E-04  9.10E-03  0.00000
   1340.    7.463  1.22E-06  2.20E-04  1.37E-17  2.47E-15  0.00E+00  0.00E+00  1.22E-06  2.20E-04  9.10E-03  0.00000
   1342.    7.452  1.53E-06  2.75E-04  1.66E-11  2.99E-09  0.00E+00  0.00E+00  1.53E-06  2.75E-04  9.10E-03  0.00000
   1344.    7.440  2.16E-06  3.90E-04  5.01E-10  9.04E-08  0.00E+00  0.00E+00  2.16E-06  3.90E-04  9.11E-03  0.00011
   1346.    7.429  2.19E-06  3.96E-04  7.30E-10  1.32E-07  0.00E+00  0.00E+00  2.19E-06  3.97E-04  9.11E-03  0.00016
   1348.    7.418  1.76E-06  3.20E-04  1.61E-10  2.93E-08  0.00E+00  0.00E+00  1.76E-06  3.20E-04  9.11E-03  0.00004
   1350.    7.407  1.84E-06  3.35E-04  8.13E-11  1.48E-08  0.00E+00  0.00E+00  1.84E-06  3.35E-04  9.12E-03  0.00002
   1352.    7.396  1.99E-06  3.64E-04  1.33E-10  2.44E-08  0.00E+00  0.00E+00  1.99E-06  3.64E-04  9.12E-03  0.00003
   1354.    7.386  1.79E-06  3.27E-04  3.80E-11  6.97E-09  0.00E+00  0.00E+00  1.79E-06  3.27E-04  9.12E-03  0.00001
   1356.    7.375  1.74E-06  3.20E-04  2.29E-12  4.21E-10  0.00E+00  0.00E+00  1.74E-06  3.20E-04  9.13E-03  0.00000
   1358.    7.364  1.88E-06  3.47E-04  2.00E-12  3.68E-10  0.00E+00  0.00E+00  1.88E-06  3.47E-04  9.13E-03  0.00000
   1360.    7.353  1.62E-06  3.00E-04  3.48E-14  6.44E-12  0.00E+00  0.00E+00  1.62E-06  3.00E-04  9.13E-03  0.00000
   1362.    7.342  1.20E-06  2.23E-04  2.51E-21  4.66E-19  0.00E+00  0.00E+00  1.20E-06  2.23E-04  9.14E-03  0.00000
   1364.    7.331  1.38E-06  2.57E-04  2.74E-16  5.09E-14  0.00E+00  0.00E+00  1.38E-06  2.57E-04  9.14E-03  0.00000
   1366.    7.321  1.86E-06  3.47E-04  1.61E-15  3.01E-13  0.00E+00  0.00E+00  1.86E-06  3.47E-04  9.14E-03  0.00000
   1368.    7.310  1.63E-06  3.04E-04  1.28E-15  2.40E-13  0.00E+00  0.00E+00  1.63E-06  3.04E-04  9.15E-03  0.00000
   1370.    7.299  1.56E-06  2.92E-04  2.17E-16  4.08E-14  0.00E+00  0.00E+00  1.56E-06  2.92E-04  9.15E-03  0.00000
   1372.    7.289  1.46E-06  2.74E-04  7.70E-20  1.45E-17  0.00E+00  0.00E+00  1.46E-06  2.74E-04  9.15E-03  0.00000
   1374.    7.278  1.06E-06  2.00E-04  8.26E-28  1.56E-25  0.00E+00  0.00E+00  1.06E-06  2.00E-04  9.16E-03  0.00000
   1376.    7.267  1.25E-06  2.37E-04  3.18E-22  6.02E-20  0.00E+00  0.00E+00  1.25E-06  2.37E-04  9.16E-03  0.00000
   1378.    7.257  1.51E-06  2.87E-04  8.94E-19  1.70E-16  0.00E+00  0.00E+00  1.51E-06  2.87E-04  9.16E-03  0.00000
   1380.    7.246  1.66E-06  3.16E-04  3.05E-15  5.81E-13  0.00E+00  0.00E+00  1.66E-06  3.16E-04  9.16E-03  0.00000
   1382.    7.236  1.85E-06  3.54E-04  4.68E-15  8.93E-13  0.00E+00  0.00E+00  1.85E-06  3.54E-04  9.17E-03  0.00000
   1384.    7.225  1.76E-06  3.38E-04  9.65E-16  1.85E-13  0.00E+00  0.00E+00  1.76E-06  3.38E-04  9.17E-03  0.00000
   1386.    7.215  1.29E-06  2.48E-04  5.71E-18  1.10E-15  0.00E+00  0.00E+00  1.29E-06  2.48E-04  9.17E-03  0.00000
   1388.    7.205  1.09E-06  2.09E-04  5.94E-23  1.15E-20  0.00E+00  0.00E+00  1.09E-06  2.09E-04  9.18E-03  0.00000
   1390.    7.194  1.39E-06  2.68E-04  1.98E-23  3.83E-21  0.00E+00  0.00E+00  1.39E-06  2.68E-04  9.18E-03  0.00000
   1392.    7.184  1.35E-06  2.61E-04  2.98E-27  5.77E-25  0.00E+00  0.00E+00  1.35E-06  2.61E-04  9.18E-03  0.00000
   1394.    7.174  9.68E-07  1.88E-04  6.85E-28  1.33E-25  0.00E+00  0.00E+00  9.68E-07  1.88E-04  9.18E-03  0.00000
   1396.    7.163  9.52E-07  1.86E-04  2.28E-28  4.45E-26  0.00E+00  0.00E+00  9.52E-07  1.86E-04  9.19E-03  0.00000
   1398.    7.153  9.62E-07  1.88E-04  1.46E-23  2.85E-21  0.00E+00  0.00E+00  9.62E-07  1.88E-04  9.19E-03  0.00000
   1400.    7.143  1.06E-06  2.07E-04  1.46E-23  2.86E-21  0.00E+00  0.00E+00  1.06E-06  2.07E-04  9.19E-03  0.00000
  iv         1405
1                                             RADIANCE(WATTS/CM2-STER-XXX)
0  FREQ   WAVLEN    PATH THERMAL      SURFACE EMISSION    SURFACE REFLECTED     TOTAL RADIANCE   INTEGRAL    TOTAL
  (CM-1) (MICRN)    (CM-1)   (MICRN)    (CM-1)   (MICRN)    (CM-1)   (MICRN)    (CM-1)   (MICRN)    (CM-1)   TRANS

   1402.    7.133  1.37E-06  2.70E-04  2.74E-27  5.38E-25  0.00E+00  0.00E+00  1.37E-06  2.70E-04  9.19E-03  0.00000
   1404.    7.123  1.17E-06  2.30E-04  2.42E-18  4.76E-16  0.00E+00  0.00E+00  1.17E-06  2.30E-04  9.19E-03  0.00000
   1406.    7.112  1.31E-06  2.59E-04  2.47E-18  4.88E-16  0.00E+00  0.00E+00  1.31E-06  2.59E-04  9.20E-03  0.00000
   1408.    7.102  1.59E-06  3.15E-04  1.65E-19  3.28E-17  0.00E+00  0.00E+00  1.59E-06  3.15E-04  9.20E-03  0.00000
   1410.    7.092  1.42E-06  2.81E-04  5.65E-20  1.12E-17  0.00E+00  0.00E+00  1.42E-06  2.81E-04  9.20E-03  0.00000
   1412.    7.082  1.35E-06  2.69E-04  1.04E-21  2.06E-19  0.00E+00  0.00E+00  1.35E-06  2.69E-04  9.21E-03  0.00000
   1414.    7.072  1.39E-06  2.79E-04  5.19E-22  1.04E-19  0.00E+00  0.00E+00  1.39E-06  2.79E-04  9.21E-03  0.00000
   1416.    7.062  1.09E-06  2.18E-04  1.06E-24  2.12E-22  0.00E+00  0.00E+00  1.09E-06  2.18E-04  9.21E-03  0.00000
   1418.    7.052  7.66E-07  1.54E-04  3.69E-41  7.43E-39  0.00E+00  0.00E+00  7.66E-07  1.54E-04  9.21E-03  0.00000
   1420.    7.042  7.43E-07  1.50E-04  0.00E+00  0.00E+00  0.00E+00  0.00E+00  7.43E-07  1.50E-04  9.21E-03  0.00000
   1422.    7.032  9.57E-07  1.94E-04  2.80E-31  5.66E-29  0.00E+00  0.00E+00  9.57E-07  1.94E-04  9.22E-03  0.00000
   1424.    7.022  9.44E-07  1.91E-04  8.40E-31  1.70E-28  0.00E+00  0.00E+00  9.44E-07  1.91E-04  9.22E-03  0.00000
   1426.    7.013  1.17E-06  2.37E-04  3.46E-31  7.03E-29  0.00E+00  0.00E+00  1.17E-06  2.37E-04  9.22E-03  0.00000
   1428.    7.003  1.07E-06  2.19E-04  3.54E-26  7.22E-24  0.00E+00  0.00E+00  1.07E-06  2.19E-04  9.22E-03  0.00000
   1430.    6.993  8.89E-07  1.82E-04  1.06E-25  2.17E-23  0.00E+00  0.00E+00  8.89E-07  1.82E-04  9.22E-03  0.00000
   1432.    6.983  9.97E-07  2.04E-04  3.54E-26  7.26E-24  0.00E+00  0.00E+00  9.97E-07  2.04E-04  9.23E-03  0.00000
   1434.    6.974  9.34E-07  1.92E-04  4.40E-40  9.05E-38  0.00E+00  0.00E+00  9.34E-07  1.92E-04  9.23E-03  0.00000
   1436.    6.964  6.88E-07  1.42E-04  0.00E+00  0.00E+00  0.00E+00  0.00E+00  6.88E-07  1.42E-04  9.23E-03  0.00000
   1438.    6.954  8.21E-07  1.70E-04  2.70E-37  5.58E-35  0.00E+00  0.00E+00  8.21E-07  1.70E-04  9.23E-03  0.00000
   1440.    6.944  1.17E-06  2.44E-04  1.87E-28  3.89E-26  0.00E+00  0.00E+00  1.17E-06  2.44E-04  9.23E-03  0.00000
   1442.    6.935  1.30E-06  2.69E-04  7.20E-27  1.50E-24  0.00E+00  0.00E+00  1.30E-06  2.69E-04  9.24E-03  0.00000
   1444.    6.925  1.25E-06  2.61E-04  8.85E-27  1.85E-24  0.00E+00  0.00E+00  1.25E-06  2.61E-04  9.24E-03  0.00000
   1446.    6.916  9.66E-07  2.02E-04  1.11E-27  2.32E-25  0.00E+00  0.00E+00  9.66E-07  2.02E-04  9.24E-03  0.00000
   1448.    6.906  8.20E-07  1.72E-04  2.85E-28  5.97E-26  0.00E+00  0.00E+00  8.20E-07  1.72E-04  9.24E-03  0.00000
   1450.    6.897  9.75E-07  2.05E-04  9.48E-29  1.99E-26  0.00E+00  0.00E+00  9.75E-07  2.05E-04  9.24E-03  0.00000
   1452.    6.887  9.12E-07  1.92E-04  3.62E-43  7.62E-41  0.00E+00  0.00E+00  9.12E-07  1.92E-04  9.25E-03  0.00000
   1454.    6.878  7.65E-07  1.62E-04  0.00E+00  0.00E+00  0.00E+00  0.00E+00  7.65E-07  1.62E-04  9.25E-03  0.00000
   1456.    6.868  5.16E-07  1.09E-04  0.00E+00  0.00E+00  0.00E+00  0.00E+00  5.16E-07  1.09E-04  9.25E-03  0.00000
   1458.    6.859  4.66E-07  9.90E-05  0.00E+00  0.00E+00  0.00E+00  0.00E+00  4.66E-07  9.90E-05  9.25E-03  0.00000
   1460.    6.849  7.11E-07  1.52E-04  0.00E+00  0.00E+00  0.00E+00  0.00E+00  7.11E-07  1.52E-04  9.25E-03  0.00000
   1462.    6.840  8.57E-07  1.83E-04  0.00E+00  0.00E+00  0.00E+00  0.00E+00  8.57E-07  1.83E-04  9.25E-03  0.00000
   1464.    6.831  6.62E-07  1.42E-04  1.62E-36  3.47E-34  0.00E+00  0.00E+00  6.62E-07  1.42E-04  9.25E-03  0.00000
   1466.    6.821  6.99E-07  1.50E-04  1.62E-36  3.48E-34  0.00E+00  0.00E+00  6.99E-07  1.50E-04  9.25E-03  0.00000
   1468.    6.812  8.84E-07  1.90E-04  0.00E+00  0.00E+00  0.00E+00  0.00E+00  8.84E-07  1.90E-04  9.26E-03  0.00000
   1470.    6.803  7.77E-07  1.68E-04  0.00E+00  0.00E+00  0.00E+00  0.00E+00  7.77E-07  1.68E-04  9.26E-03  0.00000
   1472.    6.793  5.21E-07  1.13E-04  0.00E+00  0.00E+00  0.00E+00  0.00E+00  5.21E-07  1.13E-04  9.26E-03  0.00000
   1474.    6.784  4.98E-07  1.08E-04  0.00E+00  0.00E+00  0.00E+00  0.00E+00  4.98E-07  1.08E-04  9.26E-03  0.00000
   1476.    6.775  6.03E-07  1.31E-04  0.00E+00  0.00E+00  0.00E+00  0.00E+00  6.03E-07  1.31E-04  9.26E-03  0.00000
   1478.    6.766  8.31E-07  1.82E-04  0.00E+00  0.00E+00  0.00E+00  0.00E+00  8.31E-07  1.82E-04  9.26E-03  0.00000
   1480.    6.757  8.65E-07  1.90E-04  2.14E-43  4.70E-41  0.00E+00  0.00E+00  8.65E-07  1.90E-04  9.26E-03  0.00000
   1482.    6.748  8.26E-07  1.82E-04  2.16E-43  4.74E-41  0.00E+00  0.00E+00  8.26E-07  1.82E-04  9.27E-03  0.00000
   1484.    6.739  8.78E-07  1.93E-04  1.40E-45  3.08E-43  0.00E+00  0.00E+00  8.78E-07  1.93E-04  9.27E-03  0.00000
   1486.    6.729  6.75E-07  1.49E-04  0.00E+00  0.00E+00  0.00E+00  0.00E+00  6.75E-07  1.49E-04  9.27E-03  0.00000
   1488.    6.720  5.17E-07  1.14E-04  0.00E+00  0.00E+00  0.00E+00  0.00E+00  5.17E-07  1.14E-04  9.27E-03  0.00000
   1490.    6.711  4.93E-07  1.09E-04  0.00E+00  0.00E+00  0.00E+00  0.00E+00  4.93E-07  1.09E-04  9.27E-03  0.00000
   1492.    6.702  6.45E-07  1.43E-04  0.00E+00  0.00E+00  0.00E+00  0.00E+00  6.45E-07  1.43E-04  9.27E-03  0.00000
   1494.    6.693  6.91E-07  1.54E-04  0.00E+00  0.00E+00  0.00E+00  0.00E+00  6.91E-07  1.54E-04  9.27E-03  0.00000
   1496.    6.684  5.02E-07  1.12E-04  0.00E+00  0.00E+00  0.00E+00  0.00E+00  5.02E-07  1.12E-04  9.28E-03  0.00000
   1498.    6.676  4.52E-07  1.01E-04  0.00E+00  0.00E+00  0.00E+00  0.00E+00  4.52E-07  1.01E-04  9.28E-03  0.00000
   1500.    6.667  5.37E-07  1.21E-04  0.00E+00  0.00E+00  0.00E+00  0.00E+00  5.37E-07  1.21E-04  9.28E-03  0.00000
  iv         1505
1                                             RADIANCE(WATTS/CM2-STER-XXX)
0  FREQ   WAVLEN    PATH THERMAL      SURFACE EMISSION    SURFACE REFLECTED     TOTAL RADIANCE   INTEGRAL    TOTAL
  (CM-1) (MICRN)    (CM-1)   (MICRN)    (CM-1)   (MICRN)    (CM-1)   (MICRN)    (CM-1)   (MICRN)    (CM-1)   TRANS

   1502.    6.658  6.14E-07  1.39E-04  0.00E+00  0.00E+00  0.00E+00  0.00E+00  6.14E-07  1.39E-04  9.28E-03  0.00000
   1504.    6.649  5.27E-07  1.19E-04  0.00E+00  0.00E+00  0.00E+00  0.00E+00  5.27E-07  1.19E-04  9.28E-03  0.00000
   1506.    6.640  3.40E-07  7.72E-05  0.00E+00  0.00E+00  0.00E+00  0.00E+00  3.40E-07  7.72E-05  9.28E-03  0.00000
   1508.    6.631  3.41E-07  7.76E-05  0.00E+00  0.00E+00  0.00E+00  0.00E+00  3.41E-07  7.76E-05  9.28E-03  0.00000
   1510.    6.623  4.32E-07  9.84E-05  0.00E+00  0.00E+00  0.00E+00  0.00E+00  4.32E-07  9.84E-05  9.28E-03  0.00000
   1512.    6.614  5.02E-07  1.15E-04  0.00E+00  0.00E+00  0.00E+00  0.00E+00  5.02E-07  1.15E-04  9.28E-03  0.00000
   1514.    6.605  5.35E-07  1.23E-04  0.00E+00  0.00E+00  0.00E+00  0.00E+00  5.35E-07  1.23E-04  9.28E-03  0.00000
   1516.    6.596  4.30E-07  9.89E-05  0.00E+00  0.00E+00  0.00E+00  0.00E+00  4.30E-07  9.89E-05  9.28E-03  0.00000
   1518.    6.588  4.12E-07  9.50E-05  0.00E+00  0.00E+00  0.00E+00  0.00E+00  4.12E-07  9.50E-05  9.29E-03  0.00000
   1520.    6.579  3.78E-07  8.72E-05  0.00E+00  0.00E+00  0.00E+00  0.00E+00  3.78E-07  8.72E-05  9.29E-03  0.00000
   1522.    6.570  3.35E-07  7.77E-05  0.00E+00  0.00E+00  0.00E+00  0.00E+00  3.35E-07  7.77E-05  9.29E-03  0.00000
   1524.    6.562  3.88E-07  9.01E-05  0.00E+00  0.00E+00  0.00E+00  0.00E+00  3.88E-07  9.01E-05  9.29E-03  0.00000
   1526.    6.553  4.31E-07  1.00E-04  0.00E+00  0.00E+00  0.00E+00  0.00E+00  4.31E-07  1.00E-04  9.29E-03  0.00000
   1528.    6.545  4.78E-07  1.12E-04  0.00E+00  0.00E+00  0.00E+00  0.00E+00  4.78E-07  1.12E-04  9.29E-03  0.00000
   1530.    6.536  5.36E-07  1.26E-04  0.00E+00  0.00E+00  0.00E+00  0.00E+00  5.36E-07  1.26E-04  9.29E-03  0.00000
   1532.    6.527  4.49E-07  1.05E-04  0.00E+00  0.00E+00  0.00E+00  0.00E+00  4.49E-07  1.05E-04  9.29E-03  0.00000
   1534.    6.519  3.80E-07  8.94E-05  0.00E+00  0.00E+00  0.00E+00  0.00E+00  3.80E-07  8.94E-05  9.29E-03  0.00000
   1536.    6.510  4.61E-07  1.09E-04  0.00E+00  0.00E+00  0.00E+00  0.00E+00  4.61E-07  1.09E-04  9.29E-03  0.00000
   1538.    6.502  3.51E-07  8.30E-05  0.00E+00  0.00E+00  0.00E+00  0.00E+00  3.51E-07  8.30E-05  9.29E-03  0.00000
   1540.    6.494  2.52E-07  5.97E-05  0.00E+00  0.00E+00  0.00E+00  0.00E+00  2.52E-07  5.97E-05  9.29E-03  0.00000
   1542.    6.485  2.85E-07  6.79E-05  0.00E+00  0.00E+00  0.00E+00  0.00E+00  2.85E-07  6.79E-05  9.29E-03  0.00000
   1544.    6.477  3.53E-07  8.42E-05  0.00E+00  0.00E+00  0.00E+00  0.00E+00  3.53E-07  8.42E-05  9.30E-03  0.00000
   1546.    6.468  4.46E-07  1.07E-04  0.00E+00  0.00E+00  0.00E+00  0.00E+00  4.46E-07  1.07E-04  9.30E-03  0.00000
   1548.    6.460  5.22E-07  1.25E-04  0.00E+00  0.00E+00  0.00E+00  0.00E+00  5.22E-07  1.25E-04  9.30E-03  0.00000
   1550.    6.452  4.66E-07  1.12E-04  0.00E+00  0.00E+00  0.00E+00  0.00E+00  4.66E-07  1.12E-04  9.30E-03  0.00000
   1552.    6.443  4.56E-07  1.10E-04  0.00E+00  0.00E+00  0.00E+00  0.00E+00  4.56E-07  1.10E-04  9.30E-03  0.00000
   1554.    6.435  3.80E-07  9.17E-05  0.00E+00  0.00E+00  0.00E+00  0.00E+00  3.80E-07  9.17E-05  9.30E-03  0.00000
   1556.    6.427  3.31E-07  8.01E-05  0.00E+00  0.00E+00  0.00E+00  0.00E+00  3.31E-07  8.01E-05  9.30E-03  0.00000
   1558.    6.418  2.43E-07  5.91E-05  0.00E+00  0.00E+00  0.00E+00  0.00E+00  2.43E-07  5.91E-05  9.30E-03  0.00000
   1560.    6.410  2.50E-07  6.09E-05  0.00E+00  0.00E+00  0.00E+00  0.00E+00  2.50E-07  6.09E-05  9.30E-03  0.00000
   1562.    6.402  3.93E-07  9.58E-05  0.00E+00  0.00E+00  0.00E+00  0.00E+00  3.93E-07  9.58E-05  9.30E-03  0.00000
   1564.    6.394  4.21E-07  1.03E-04  0.00E+00  0.00E+00  0.00E+00  0.00E+00  4.21E-07  1.03E-04  9.30E-03  0.00000
   1566.    6.386  4.48E-07  1.10E-04  0.00E+00  0.00E+00  0.00E+00  0.00E+00  4.48E-07  1.10E-04  9.30E-03  0.00000
   1568.    6.378  4.09E-07  1.01E-04  0.00E+00  0.00E+00  0.00E+00  0.00E+00  4.09E-07  1.01E-04  9.31E-03  0.00000
   1570.    6.369  3.46E-07  8.52E-05  0.00E+00  0.00E+00  0.00E+00  0.00E+00  3.46E-07  8.52E-05  9.31E-03  0.00000
   1572.    6.361  4.62E-07  1.14E-04  0.00E+00  0.00E+00  0.00E+00  0.00E+00  4.62E-07  1.14E-04  9.31E-03  0.00000
   1574.    6.353  4.26E-07  1.05E-04  3.36E-44  8.33E-42  0.00E+00  0.00E+00  4.26E-07  1.05E-04  9.31E-03  0.00000
   1576.    6.345  2.93E-07  7.27E-05  1.01E-43  2.51E-41  0.00E+00  0.00E+00  2.93E-07  7.27E-05  9.31E-03  0.00000
   1578.    6.337  3.80E-07  9.45E-05  3.36E-44  8.37E-42  0.00E+00  0.00E+00  3.80E-07  9.45E-05  9.31E-03  0.00000
   1580.    6.329  5.57E-07  1.39E-04  0.00E+00  0.00E+00  0.00E+00  0.00E+00  5.57E-07  1.39E-04  9.31E-03  0.00000
   1582.    6.321  6.31E-07  1.58E-04  1.71E-39  4.29E-37  0.00E+00  0.00E+00  6.31E-07  1.58E-04  9.31E-03  0.00000
   1584.    6.313  6.86E-07  1.72E-04  1.00E-34  2.52E-32  0.00E+00  0.00E+00  6.86E-07  1.72E-04  9.31E-03  0.00000
   1586.    6.305  7.18E-07  1.81E-04  4.16E-33  1.05E-30  0.00E+00  0.00E+00  7.18E-07  1.81E-04  9.31E-03  0.00000
   1588.    6.297  6.92E-07  1.74E-04  1.01E-32  2.55E-30  0.00E+00  0.00E+00  6.92E-07  1.74E-04  9.32E-03  0.00000
   1590.    6.289  6.08E-07  1.54E-04  3.08E-33  7.79E-31  0.00E+00  0.00E+00  6.08E-07  1.54E-04  9.32E-03  0.00000
   1592.    6.281  5.77E-07  1.46E-04  4.67E-33  1.18E-30  0.00E+00  0.00E+00  5.77E-07  1.46E-04  9.32E-03  0.00000
   1594.    6.274  5.27E-07  1.34E-04  1.40E-32  3.56E-30  0.00E+00  0.00E+00  5.27E-07  1.34E-04  9.32E-03  0.00000
   1596.    6.266  5.51E-07  1.40E-04  4.23E-31  1.08E-28  0.00E+00  0.00E+00  5.51E-07  1.40E-04  9.32E-03  0.00000
   1598.    6.258  6.78E-07  1.73E-04  4.40E-30  1.12E-27  0.00E+00  0.00E+00  6.78E-07  1.73E-04  9.32E-03  0.00000
   1600.    6.250  6.42E-07  1.64E-04  3.57E-30  9.15E-28  0.00E+00  0.00E+00  6.42E-07  1.64E-04  9.32E-03  0.00000
  iv         1605
1                                             RADIANCE(WATTS/CM2-STER-XXX)
0  FREQ   WAVLEN    PATH THERMAL      SURFACE EMISSION    SURFACE REFLECTED     TOTAL RADIANCE   INTEGRAL    TOTAL
  (CM-1) (MICRN)    (CM-1)   (MICRN)    (CM-1)   (MICRN)    (CM-1)   (MICRN)    (CM-1)   (MICRN)    (CM-1)   TRANS

   1602.    6.242  5.22E-07  1.34E-04  5.22E-33  1.34E-30  0.00E+00  0.00E+00  5.22E-07  1.34E-04  9.32E-03  0.00000
   1604.    6.234  5.61E-07  1.44E-04  4.90E-35  1.26E-32  0.00E+00  0.00E+00  5.61E-07  1.44E-04  9.32E-03  0.00000
   1606.    6.227  5.61E-07  1.45E-04  4.71E-35  1.22E-32  0.00E+00  0.00E+00  5.61E-07  1.45E-04  9.33E-03  0.00000
   1608.    6.219  4.52E-07  1.17E-04  7.10E-41  1.84E-38  0.00E+00  0.00E+00  4.52E-07  1.17E-04  9.33E-03  0.00000
   1610.    6.211  4.75E-07  1.23E-04  1.48E-41  3.82E-39  0.00E+00  0.00E+00  4.75E-07  1.23E-04  9.33E-03  0.00000
   1612.    6.203  5.30E-07  1.38E-04  0.00E+00  0.00E+00  0.00E+00  0.00E+00  5.30E-07  1.38E-04  9.33E-03  0.00000
   1614.    6.196  4.41E-07  1.15E-04  0.00E+00  0.00E+00  0.00E+00  0.00E+00  4.41E-07  1.15E-04  9.33E-03  0.00000
   1616.    6.188  2.79E-07  7.28E-05  2.90E-35  7.58E-33  0.00E+00  0.00E+00  2.79E-07  7.28E-05  9.33E-03  0.00000
   1618.    6.180  3.04E-07  7.96E-05  2.90E-35  7.60E-33  0.00E+00  0.00E+00  3.04E-07  7.96E-05  9.33E-03  0.00000
   1620.    6.173  4.12E-07  1.08E-04  0.00E+00  0.00E+00  0.00E+00  0.00E+00  4.12E-07  1.08E-04  9.33E-03  0.00000
   1622.    6.165  3.50E-07  9.20E-05  0.00E+00  0.00E+00  0.00E+00  0.00E+00  3.50E-07  9.20E-05  9.33E-03  0.00000
   1624.    6.158  2.94E-07  7.75E-05  0.00E+00  0.00E+00  0.00E+00  0.00E+00  2.94E-07  7.75E-05  9.33E-03  0.00000
   1626.    6.150  3.40E-07  8.99E-05  0.00E+00  0.00E+00  0.00E+00  0.00E+00  3.40E-07  8.99E-05  9.33E-03  0.00000
   1628.    6.143  3.36E-07  8.89E-05  0.00E+00  0.00E+00  0.00E+00  0.00E+00  3.36E-07  8.89E-05  9.33E-03  0.00000
   1630.    6.135  4.33E-07  1.15E-04  0.00E+00  0.00E+00  0.00E+00  0.00E+00  4.33E-07  1.15E-04  9.34E-03  0.00000
   1632.    6.127  4.29E-07  1.14E-04  0.00E+00  0.00E+00  0.00E+00  0.00E+00  4.29E-07  1.14E-04  9.34E-03  0.00000
   1634.    6.120  2.85E-07  7.60E-05  0.00E+00  0.00E+00  0.00E+00  0.00E+00  2.85E-07  7.60E-05  9.34E-03  0.00000
   1636.    6.112  2.06E-07  5.51E-05  0.00E+00  0.00E+00  0.00E+00  0.00E+00  2.06E-07  5.51E-05  9.34E-03  0.00000
   1638.    6.105  2.72E-07  7.31E-05  0.00E+00  0.00E+00  0.00E+00  0.00E+00  2.72E-07  7.31E-05  9.34E-03  0.00000
   1640.    6.098  3.58E-07  9.63E-05  0.00E+00  0.00E+00  0.00E+00  0.00E+00  3.58E-07  9.63E-05  9.34E-03  0.00000
   1642.    6.090  3.85E-07  1.04E-04  0.00E+00  0.00E+00  0.00E+00  0.00E+00  3.85E-07  1.04E-04  9.34E-03  0.00000
   1644.    6.083  3.21E-07  8.69E-05  0.00E+00  0.00E+00  0.00E+00  0.00E+00  3.21E-07  8.69E-05  9.34E-03  0.00000
   1646.    6.075  2.09E-07  5.67E-05  0.00E+00  0.00E+00  0.00E+00  0.00E+00  2.09E-07  5.67E-05  9.34E-03  0.00000
   1648.    6.068  2.22E-07  6.02E-05  0.00E+00  0.00E+00  0.00E+00  0.00E+00  2.22E-07  6.02E-05  9.34E-03  0.00000
   1650.    6.061  2.58E-07  7.01E-05  0.00E+00  0.00E+00  0.00E+00  0.00E+00  2.58E-07  7.01E-05  9.34E-03  0.00000
   1652.    6.053  1.80E-07  4.92E-05  0.00E+00  0.00E+00  0.00E+00  0.00E+00  1.80E-07  4.92E-05  9.34E-03  0.00000
   1654.    6.046  1.71E-07  4.66E-05  0.00E+00  0.00E+00  0.00E+00  0.00E+00  1.71E-07  4.66E-05  9.34E-03  0.00000
   1656.    6.039  2.76E-07  7.58E-05  0.00E+00  0.00E+00  0.00E+00  0.00E+00  2.76E-07  7.58E-05  9.34E-03  0.00000
   1658.    6.031  3.77E-07  1.04E-04  0.00E+00  0.00E+00  0.00E+00  0.00E+00  3.77E-07  1.04E-04  9.34E-03  0.00000
   1660.    6.024  3.71E-07  1.02E-04  0.00E+00  0.00E+00  0.00E+00  0.00E+00  3.71E-07  1.02E-04  9.34E-03  0.00000
   1662.    6.017  2.72E-07  7.52E-05  0.00E+00  0.00E+00  0.00E+00  0.00E+00  2.72E-07  7.52E-05  9.34E-03  0.00000
   1664.    6.010  3.07E-07  8.49E-05  0.00E+00  0.00E+00  0.00E+00  0.00E+00  3.07E-07  8.49E-05  9.34E-03  0.00000
   1666.    6.002  3.65E-07  1.01E-04  0.00E+00  0.00E+00  0.00E+00  0.00E+00  3.65E-07  1.01E-04  9.35E-03  0.00000
   1668.    5.995  2.60E-07  7.24E-05  0.00E+00  0.00E+00  0.00E+00  0.00E+00  2.60E-07  7.24E-05  9.35E-03  0.00000
   1670.    5.988  1.99E-07  5.55E-05  0.00E+00  0.00E+00  0.00E+00  0.00E+00  1.99E-07  5.55E-05  9.35E-03  0.00000
   1672.    5.981  2.45E-07  6.85E-05  0.00E+00  0.00E+00  0.00E+00  0.00E+00  2.45E-07  6.85E-05  9.35E-03  0.00000
   1674.    5.974  2.51E-07  7.03E-05  0.00E+00  0.00E+00  0.00E+00  0.00E+00  2.51E-07  7.03E-05  9.35E-03  0.00000
   1676.    5.967  2.32E-07  6.53E-05  0.00E+00  0.00E+00  0.00E+00  0.00E+00  2.32E-07  6.53E-05  9.35E-03  0.00000
   1678.    5.959  2.94E-07  8.29E-05  0.00E+00  0.00E+00  0.00E+00  0.00E+00  2.94E-07  8.29E-05  9.35E-03  0.00000
   1680.    5.952  2.75E-07  7.75E-05  0.00E+00  0.00E+00  0.00E+00  0.00E+00  2.75E-07  7.75E-05  9.35E-03  0.00000
   1682.    5.945  2.32E-07  6.56E-05  0.00E+00  0.00E+00  0.00E+00  0.00E+00  2.32E-07  6.56E-05  9.35E-03  0.00000
   1684.    5.938  1.64E-07  4.65E-05  0.00E+00  0.00E+00  0.00E+00  0.00E+00  1.64E-07  4.65E-05  9.35E-03  0.00000
   1686.    5.931  2.09E-07  5.95E-05  0.00E+00  0.00E+00  0.00E+00  0.00E+00  2.09E-07  5.95E-05  9.35E-03  0.00000
   1688.    5.924  2.58E-07  7.35E-05  0.00E+00  0.00E+00  0.00E+00  0.00E+00  2.58E-07  7.35E-05  9.35E-03  0.00000
   1690.    5.917  2.69E-07  7.68E-05  0.00E+00  0.00E+00  0.00E+00  0.00E+00  2.69E-07  7.68E-05  9.35E-03  0.00000
   1692.    5.910  2.98E-07  8.52E-05  0.00E+00  0.00E+00  0.00E+00  0.00E+00  2.98E-07  8.52E-05  9.35E-03  0.00000
   1694.    5.903  2.37E-07  6.79E-05  0.00E+00  0.00E+00  0.00E+00  0.00E+00  2.37E-07  6.79E-05  9.35E-03  0.00000
   1696.    5.896  1.71E-07  4.91E-05  0.00E+00  0.00E+00  0.00E+00  0.00E+00  1.71E-07  4.91E-05  9.35E-03  0.00000
   1698.    5.889  1.76E-07  5.08E-05  0.00E+00  0.00E+00  0.00E+00  0.00E+00  1.76E-07  5.08E-05  9.35E-03  0.00000
   1700.    5.882  1.44E-07  4.15E-05  0.00E+00  0.00E+00  0.00E+00  0.00E+00  1.44E-07  4.15E-05  9.35E-03  0.00000
  iv         1705
1                                             RADIANCE(WATTS/CM2-STER-XXX)
0  FREQ   WAVLEN    PATH THERMAL      SURFACE EMISSION    SURFACE REFLECTED     TOTAL RADIANCE   INTEGRAL    TOTAL
  (CM-1) (MICRN)    (CM-1)   (MICRN)    (CM-1)   (MICRN)    (CM-1)   (MICRN)    (CM-1)   (MICRN)    (CM-1)   TRANS

   1702.    5.875  1.88E-07  5.43E-05  0.00E+00  0.00E+00  0.00E+00  0.00E+00  1.88E-07  5.43E-05  9.35E-03  0.00000
   1704.    5.869  2.04E-07  5.93E-05  0.00E+00  0.00E+00  0.00E+00  0.00E+00  2.04E-07  5.93E-05  9.35E-03  0.00000
   1706.    5.862  1.96E-07  5.71E-05  0.00E+00  0.00E+00  0.00E+00  0.00E+00  1.96E-07  5.71E-05  9.35E-03  0.00000
   1708.    5.855  2.66E-07  7.76E-05  0.00E+00  0.00E+00  0.00E+00  0.00E+00  2.66E-07  7.76E-05  9.36E-03  0.00000
   1710.    5.848  2.92E-07  8.54E-05  0.00E+00  0.00E+00  0.00E+00  0.00E+00  2.92E-07  8.54E-05  9.36E-03  0.00000
   1712.    5.841  2.92E-07  8.56E-05  0.00E+00  0.00E+00  0.00E+00  0.00E+00  2.92E-07  8.56E-05  9.36E-03  0.00000
   1714.    5.834  2.27E-07  6.67E-05  0.00E+00  0.00E+00  0.00E+00  0.00E+00  2.27E-07  6.67E-05  9.36E-03  0.00000
   1716.    5.828  1.71E-07  5.03E-05  0.00E+00  0.00E+00  0.00E+00  0.00E+00  1.71E-07  5.03E-05  9.36E-03  0.00000
   1718.    5.821  1.64E-07  4.83E-05  0.00E+00  0.00E+00  0.00E+00  0.00E+00  1.64E-07  4.83E-05  9.36E-03  0.00000
   1720.    5.814  2.50E-07  7.39E-05  0.00E+00  0.00E+00  0.00E+00  0.00E+00  2.50E-07  7.39E-05  9.36E-03  0.00000
   1722.    5.807  3.06E-07  9.07E-05  0.00E+00  0.00E+00  0.00E+00  0.00E+00  3.06E-07  9.07E-05  9.36E-03  0.00000
   1724.    5.800  3.32E-07  9.87E-05  0.00E+00  0.00E+00  0.00E+00  0.00E+00  3.32E-07  9.87E-05  9.36E-03  0.00000
   1726.    5.794  3.65E-07  1.09E-04  0.00E+00  0.00E+00  0.00E+00  0.00E+00  3.65E-07  1.09E-04  9.36E-03  0.00000
   1728.    5.787  3.30E-07  9.86E-05  0.00E+00  0.00E+00  0.00E+00  0.00E+00  3.30E-07  9.86E-05  9.36E-03  0.00000
   1730.    5.780  2.48E-07  7.43E-05  0.00E+00  0.00E+00  0.00E+00  0.00E+00  2.48E-07  7.43E-05  9.36E-03  0.00000
   1732.    5.774  1.95E-07  5.85E-05  0.00E+00  0.00E+00  0.00E+00  0.00E+00  1.95E-07  5.85E-05  9.36E-03  0.00000
   1734.    5.767  1.50E-07  4.51E-05  0.00E+00  0.00E+00  0.00E+00  0.00E+00  1.50E-07  4.51E-05  9.36E-03  0.00000
   1736.    5.760  2.02E-07  6.10E-05  0.00E+00  0.00E+00  0.00E+00  0.00E+00  2.02E-07  6.10E-05  9.36E-03  0.00000
   1738.    5.754  2.12E-07  6.42E-05  0.00E+00  0.00E+00  0.00E+00  0.00E+00  2.12E-07  6.42E-05  9.36E-03  0.00000
   1740.    5.747  1.90E-07  5.76E-05  0.00E+00  0.00E+00  0.00E+00  0.00E+00  1.90E-07  5.76E-05  9.36E-03  0.00000
   1742.    5.741  2.31E-07  7.01E-05  0.00E+00  0.00E+00  0.00E+00  0.00E+00  2.31E-07  7.01E-05  9.36E-03  0.00000
   1744.    5.734  2.20E-07  6.69E-05  0.00E+00  0.00E+00  0.00E+00  0.00E+00  2.20E-07  6.69E-05  9.36E-03  0.00000
   1746.    5.727  2.17E-07  6.60E-05  0.00E+00  0.00E+00  0.00E+00  0.00E+00  2.17E-07  6.60E-05  9.36E-03  0.00000
   1748.    5.721  1.87E-07  5.70E-05  0.00E+00  0.00E+00  0.00E+00  0.00E+00  1.87E-07  5.70E-05  9.36E-03  0.00000
   1750.    5.714  1.85E-07  5.66E-05  0.00E+00  0.00E+00  0.00E+00  0.00E+00  1.85E-07  5.66E-05  9.37E-03  0.00000
   1752.    5.708  2.34E-07  7.18E-05  0.00E+00  0.00E+00  0.00E+00  0.00E+00  2.34E-07  7.18E-05  9.37E-03  0.00000
   1754.    5.701  3.11E-07  9.55E-05  0.00E+00  0.00E+00  0.00E+00  0.00E+00  3.11E-07  9.55E-05  9.37E-03  0.00000
   1756.    5.695  2.70E-07  8.33E-05  4.52E-35  1.39E-32  0.00E+00  0.00E+00  2.70E-07  8.33E-05  9.37E-03  0.00000
   1758.    5.688  2.63E-07  8.13E-05  4.52E-35  1.40E-32  0.00E+00  0.00E+00  2.63E-07  8.13E-05  9.37E-03  0.00000
   1760.    5.682  2.58E-07  7.99E-05  9.28E-32  2.88E-29  0.00E+00  0.00E+00  2.58E-07  7.99E-05  9.37E-03  0.00000
   1762.    5.675  2.14E-07  6.63E-05  2.79E-31  8.65E-29  0.00E+00  0.00E+00  2.14E-07  6.63E-05  9.37E-03  0.00000
   1764.    5.669  2.94E-07  9.16E-05  9.28E-32  2.89E-29  0.00E+00  0.00E+00  2.94E-07  9.16E-05  9.37E-03  0.00000
   1766.    5.663  3.19E-07  9.96E-05  6.70E-41  2.09E-38  0.00E+00  0.00E+00  3.19E-07  9.96E-05  9.37E-03  0.00000
   1768.    5.656  2.38E-07  7.43E-05  1.99E-41  6.21E-39  0.00E+00  0.00E+00  2.38E-07  7.43E-05  9.37E-03  0.00000
   1770.    5.650  1.89E-07  5.94E-05  0.00E+00  0.00E+00  0.00E+00  0.00E+00  1.89E-07  5.94E-05  9.37E-03  0.00000
   1772.    5.643  1.41E-07  4.43E-05  0.00E+00  0.00E+00  0.00E+00  0.00E+00  1.41E-07  4.43E-05  9.37E-03  0.00000
   1774.    5.637  1.79E-07  5.63E-05  5.61E-45  1.76E-42  0.00E+00  0.00E+00  1.79E-07  5.63E-05  9.37E-03  0.00000
   1776.    5.631  2.47E-07  7.80E-05  1.18E-40  3.73E-38  0.00E+00  0.00E+00  2.47E-07  7.80E-05  9.37E-03  0.00000
   1778.    5.624  2.81E-07  8.87E-05  3.55E-40  1.12E-37  0.00E+00  0.00E+00  2.81E-07  8.87E-05  9.37E-03  0.00000
   1780.    5.618  2.28E-07  7.23E-05  5.36E-36  1.70E-33  0.00E+00  0.00E+00  2.28E-07  7.23E-05  9.37E-03  0.00000
   1782.    5.612  2.56E-07  8.11E-05  7.26E-36  2.30E-33  0.00E+00  0.00E+00  2.56E-07  8.11E-05  9.37E-03  0.00000
   1784.    5.605  2.80E-07  8.92E-05  3.55E-30  1.13E-27  0.00E+00  0.00E+00  2.80E-07  8.92E-05  9.37E-03  0.00000
   1786.    5.599  3.25E-07  1.04E-04  4.00E-27  1.28E-24  0.00E+00  0.00E+00  3.25E-07  1.04E-04  9.37E-03  0.00000
   1788.    5.593  3.41E-07  1.09E-04  4.00E-27  1.28E-24  0.00E+00  0.00E+00  3.41E-07  1.09E-04  9.37E-03  0.00000
   1790.    5.587  2.38E-07  7.62E-05  4.12E-31  1.32E-28  0.00E+00  0.00E+00  2.38E-07  7.62E-05  9.38E-03  0.00000
   1792.    5.580  1.56E-07  5.01E-05  1.11E-27  3.55E-25  0.00E+00  0.00E+00  1.56E-07  5.01E-05  9.38E-03  0.00000
   1794.    5.574  1.82E-07  5.85E-05  1.11E-27  3.56E-25  0.00E+00  0.00E+00  1.82E-07  5.85E-05  9.38E-03  0.00000
   1796.    5.568  2.26E-07  7.30E-05  6.52E-41  2.10E-38  0.00E+00  0.00E+00  2.26E-07  7.30E-05  9.38E-03  0.00000
   1798.    5.562  2.43E-07  7.86E-05  4.14E-27  1.34E-24  0.00E+00  0.00E+00  2.43E-07  7.86E-05  9.38E-03  0.00000
   1800.    5.556  1.92E-07  6.22E-05  1.24E-26  4.03E-24  0.00E+00  0.00E+00  1.92E-07  6.22E-05  9.38E-03  0.00000
  iv         1805
1                                             RADIANCE(WATTS/CM2-STER-XXX)
0  FREQ   WAVLEN    PATH THERMAL      SURFACE EMISSION    SURFACE REFLECTED     TOTAL RADIANCE   INTEGRAL    TOTAL
  (CM-1) (MICRN)    (CM-1)   (MICRN)    (CM-1)   (MICRN)    (CM-1)   (MICRN)    (CM-1)   (MICRN)    (CM-1)   TRANS

   1802.    5.549  2.37E-07  7.71E-05  1.87E-24  6.09E-22  0.00E+00  0.00E+00  2.37E-07  7.71E-05  9.38E-03  0.00000
   1804.    5.543  3.33E-07  1.08E-04  2.90E-22  9.44E-20  0.00E+00  0.00E+00  3.33E-07  1.08E-04  9.38E-03  0.00000
   1806.    5.537  3.50E-07  1.14E-04  4.76E-22  1.55E-19  0.00E+00  0.00E+00  3.50E-07  1.14E-04  9.38E-03  0.00000
   1808.    5.531  3.09E-07  1.01E-04  5.65E-22  1.85E-19  0.00E+00  0.00E+00  3.09E-07  1.01E-04  9.38E-03  0.00000
   1810.    5.525  2.36E-07  7.75E-05  3.46E-21  1.13E-18  0.00E+00  0.00E+00  2.36E-07  7.75E-05  9.38E-03  0.00000
   1812.    5.519  2.60E-07  8.54E-05  9.04E-19  2.97E-16  0.00E+00  0.00E+00  2.60E-07  8.54E-05  9.38E-03  0.00000
   1814.    5.513  4.01E-07  1.32E-04  1.25E-16  4.12E-14  0.00E+00  0.00E+00  4.01E-07  1.32E-04  9.38E-03  0.00000
   1816.    5.507  4.08E-07  1.35E-04  1.85E-16  6.09E-14  0.00E+00  0.00E+00  4.08E-07  1.35E-04  9.38E-03  0.00000
   1818.    5.501  4.17E-07  1.38E-04  2.41E-15  7.97E-13  0.00E+00  0.00E+00  4.17E-07  1.38E-04  9.38E-03  0.00000
   1820.    5.495  4.34E-07  1.44E-04  2.77E-15  9.17E-13  0.00E+00  0.00E+00  4.34E-07  1.44E-04  9.38E-03  0.00000
   1822.    5.488  3.41E-07  1.13E-04  1.94E-16  6.44E-14  0.00E+00  0.00E+00  3.41E-07  1.13E-04  9.38E-03  0.00000
   1824.    5.482  2.33E-07  7.75E-05  2.50E-21  8.30E-19  0.00E+00  0.00E+00  2.33E-07  7.75E-05  9.39E-03  0.00000
   1826.    5.476  2.06E-07  6.86E-05  2.50E-21  8.32E-19  0.00E+00  0.00E+00  2.06E-07  6.86E-05  9.39E-03  0.00000
   1828.    5.470  2.07E-07  6.92E-05  1.23E-43  4.12E-41  0.00E+00  0.00E+00  2.07E-07  6.92E-05  9.39E-03  0.00000
   1830.    5.464  1.55E-07  5.18E-05  2.24E-43  7.51E-41  0.00E+00  0.00E+00  1.55E-07  5.18E-05  9.39E-03  0.00000
   1832.    5.459  2.44E-07  8.20E-05  1.20E-22  4.03E-20  0.00E+00  0.00E+00  2.44E-07  8.20E-05  9.39E-03  0.00000
   1834.    5.453  3.25E-07  1.09E-04  2.29E-21  7.70E-19  0.00E+00  0.00E+00  3.25E-07  1.09E-04  9.39E-03  0.00000
   1836.    5.447  2.86E-07  9.63E-05  4.63E-19  1.56E-16  0.00E+00  0.00E+00  2.86E-07  9.63E-05  9.39E-03  0.00000
   1838.    5.441  2.83E-07  9.56E-05  4.66E-19  1.58E-16  0.00E+00  0.00E+00  2.83E-07  9.56E-05  9.39E-03  0.00000
   1840.    5.435  3.32E-07  1.12E-04  1.34E-20  4.54E-18  0.00E+00  0.00E+00  3.32E-07  1.12E-04  9.39E-03  0.00000
   1842.    5.429  2.39E-07  8.10E-05  4.38E-21  1.49E-18  0.00E+00  0.00E+00  2.39E-07  8.10E-05  9.39E-03  0.00000
   1844.    5.423  1.39E-07  4.71E-05  1.46E-21  4.95E-19  0.00E+00  0.00E+00  1.39E-07  4.71E-05  9.39E-03  0.00000
   1846.    5.417  1.71E-07  5.82E-05  5.59E-22  1.91E-19  0.00E+00  0.00E+00  1.71E-07  5.82E-05  9.39E-03  0.00000
   1848.    5.411  2.46E-07  8.41E-05  1.82E-17  6.23E-15  0.00E+00  0.00E+00  2.46E-07  8.41E-05  9.39E-03  0.00000
   1850.    5.405  3.65E-07  1.25E-04  2.09E-14  7.16E-12  0.00E+00  0.00E+00  3.65E-07  1.25E-04  9.39E-03  0.00000
   1852.    5.400  4.16E-07  1.43E-04  6.66E-13  2.28E-10  0.00E+00  0.00E+00  4.16E-07  1.43E-04  9.39E-03  0.00000
   1854.    5.394  4.50E-07  1.55E-04  7.18E-12  2.47E-09  0.00E+00  0.00E+00  4.50E-07  1.55E-04  9.39E-03  0.00001
   1856.    5.388  4.47E-07  1.54E-04  8.23E-12  2.83E-09  0.00E+00  0.00E+00  4.47E-07  1.54E-04  9.39E-03  0.00001
   1858.    5.382  3.71E-07  1.28E-04  1.60E-12  5.51E-10  0.00E+00  0.00E+00  3.71E-07  1.28E-04  9.40E-03  0.00000
   1860.    5.376  3.42E-07  1.18E-04  2.96E-14  1.02E-11  0.00E+00  0.00E+00  3.42E-07  1.18E-04  9.40E-03  0.00000
   1862.    5.371  3.78E-07  1.31E-04  7.29E-14  2.53E-11  0.00E+00  0.00E+00  3.78E-07  1.31E-04  9.40E-03  0.00000
   1864.    5.365  3.42E-07  1.19E-04  4.21E-14  1.46E-11  0.00E+00  0.00E+00  3.42E-07  1.19E-04  9.40E-03  0.00000
   1866.    5.359  2.12E-07  7.39E-05  4.75E-17  1.65E-14  0.00E+00  0.00E+00  2.12E-07  7.39E-05  9.40E-03  0.00000
   1868.    5.353  1.27E-07  4.43E-05  1.31E-25  4.57E-23  0.00E+00  0.00E+00  1.27E-07  4.43E-05  9.40E-03  0.00000
   1870.    5.348  1.66E-07  5.82E-05  1.49E-20  5.20E-18  0.00E+00  0.00E+00  1.66E-07  5.82E-05  9.40E-03  0.00000
   1872.    5.342  3.20E-07  1.12E-04  5.79E-13  2.03E-10  0.00E+00  0.00E+00  3.20E-07  1.12E-04  9.40E-03  0.00000
   1874.    5.336  4.41E-07  1.55E-04  2.29E-11  8.03E-09  0.00E+00  0.00E+00  4.41E-07  1.55E-04  9.40E-03  0.00002
   1876.    5.330  4.66E-07  1.64E-04  1.23E-10  4.34E-08  0.00E+00  0.00E+00  4.66E-07  1.64E-04  9.40E-03  0.00013
   1878.    5.325  4.53E-07  1.60E-04  2.46E-10  8.69E-08  0.00E+00  0.00E+00  4.53E-07  1.60E-04  9.40E-03  0.00026
   1880.    5.319  4.61E-07  1.63E-04  5.07E-10  1.79E-07  0.00E+00  0.00E+00  4.62E-07  1.63E-04  9.40E-03  0.00053
   1882.    5.313  4.79E-07  1.70E-04  6.89E-10  2.44E-07  0.00E+00  0.00E+00  4.80E-07  1.70E-04  9.40E-03  0.00072
   1884.    5.308  3.57E-07  1.27E-04  1.60E-10  5.67E-08  0.00E+00  0.00E+00  3.57E-07  1.27E-04  9.40E-03  0.00017
   1886.    5.302  3.29E-07  1.17E-04  4.49E-14  1.60E-11  0.00E+00  0.00E+00  3.29E-07  1.17E-04  9.40E-03  0.00000
   1888.    5.297  2.87E-07  1.02E-04  7.89E-13  2.81E-10  0.00E+00  0.00E+00  2.87E-07  1.02E-04  9.41E-03  0.00000
   1890.    5.291  2.05E-07  7.31E-05  2.27E-12  8.10E-10  0.00E+00  0.00E+00  2.05E-07  7.31E-05  9.41E-03  0.00000
   1892.    5.285  2.98E-07  1.07E-04  7.61E-13  2.73E-10  0.00E+00  0.00E+00  2.98E-07  1.07E-04  9.41E-03  0.00000
   1894.    5.280  2.72E-07  9.75E-05  1.17E-14  4.20E-12  0.00E+00  0.00E+00  2.72E-07  9.75E-05  9.41E-03  0.00000
   1896.    5.274  2.72E-07  9.78E-05  1.34E-11  4.82E-09  0.00E+00  0.00E+00  2.72E-07  9.78E-05  9.41E-03  0.00001
   1898.    5.269  4.14E-07  1.49E-04  8.20E-10  2.95E-07  0.00E+00  0.00E+00  4.15E-07  1.50E-04  9.41E-03  0.00091
   1900.    5.263  4.73E-07  1.71E-04  2.03E-09  7.34E-07  0.00E+00  0.00E+00  4.75E-07  1.71E-04  9.41E-03  0.00227
  iv         1905
1                                             RADIANCE(WATTS/CM2-STER-XXX)
0  FREQ   WAVLEN    PATH THERMAL      SURFACE EMISSION    SURFACE REFLECTED     TOTAL RADIANCE   INTEGRAL    TOTAL
  (CM-1) (MICRN)    (CM-1)   (MICRN)    (CM-1)   (MICRN)    (CM-1)   (MICRN)    (CM-1)   (MICRN)    (CM-1)   TRANS

   1902.    5.258  4.10E-07  1.48E-04  8.62E-10  3.12E-07  0.00E+00  0.00E+00  4.11E-07  1.49E-04  9.41E-03  0.00096
   1904.    5.252  3.35E-07  1.21E-04  8.18E-11  2.97E-08  0.00E+00  0.00E+00  3.35E-07  1.21E-04  9.41E-03  0.00009
   1906.    5.247  3.10E-07  1.13E-04  7.44E-12  2.70E-09  0.00E+00  0.00E+00  3.10E-07  1.13E-04  9.41E-03  0.00001
   1908.    5.241  2.15E-07  7.82E-05  2.28E-12  8.31E-10  0.00E+00  0.00E+00  2.15E-07  7.82E-05  9.41E-03  0.00000
   1910.    5.236  2.18E-07  7.96E-05  2.46E-12  8.99E-10  0.00E+00  0.00E+00  2.18E-07  7.96E-05  9.41E-03  0.00000
   1912.    5.230  3.35E-07  1.22E-04  2.20E-11  8.04E-09  0.00E+00  0.00E+00  3.35E-07  1.22E-04  9.41E-03  0.00003
   1914.    5.225  3.58E-07  1.31E-04  2.61E-11  9.56E-09  0.00E+00  0.00E+00  3.58E-07  1.31E-04  9.41E-03  0.00003
   1916.    5.219  2.75E-07  1.01E-04  3.84E-12  1.41E-09  0.00E+00  0.00E+00  2.75E-07  1.01E-04  9.41E-03  0.00000
   1918.    5.214  1.65E-07  6.05E-05  2.37E-15  8.71E-13  0.00E+00  0.00E+00  1.65E-07  6.05E-05  9.41E-03  0.00000
   1920.    5.208  1.98E-07  7.28E-05  6.91E-16  2.55E-13  0.00E+00  0.00E+00  1.98E-07  7.28E-05  9.41E-03  0.00000
   1922.    5.203  1.84E-07  6.80E-05  2.99E-21  1.10E-18  0.00E+00  0.00E+00  1.84E-07  6.80E-05  9.42E-03  0.00000
   1924.    5.198  2.18E-07  8.07E-05  1.14E-11  4.24E-09  0.00E+00  0.00E+00  2.18E-07  8.07E-05  9.42E-03  0.00001
   1926.    5.192  3.65E-07  1.36E-04  5.42E-10  2.01E-07  0.00E+00  0.00E+00  3.66E-07  1.36E-04  9.42E-03  0.00066
   1928.    5.187  4.46E-07  1.66E-04  5.86E-09  2.18E-06  0.00E+00  0.00E+00  4.52E-07  1.68E-04  9.42E-03  0.00719
   1930.    5.181  4.70E-07  1.75E-04  1.23E-08  4.58E-06  0.00E+00  0.00E+00  4.82E-07  1.80E-04  9.42E-03  0.01513
   1932.    5.176  3.58E-07  1.34E-04  5.53E-09  2.06E-06  0.00E+00  0.00E+00  3.63E-07  1.36E-04  9.42E-03  0.00682
   1934.    5.171  3.38E-07  1.27E-04  3.81E-09  1.43E-06  0.00E+00  0.00E+00  3.42E-07  1.28E-04  9.42E-03  0.00477
   1936.    5.165  4.37E-07  1.64E-04  8.63E-09  3.24E-06  0.00E+00  0.00E+00  4.46E-07  1.67E-04  9.42E-03  0.01083
   1938.    5.160  4.22E-07  1.59E-04  4.06E-09  1.52E-06  0.00E+00  0.00E+00  4.26E-07  1.60E-04  9.42E-03  0.00510
   1940.    5.155  3.40E-07  1.28E-04  5.85E-10  2.20E-07  0.00E+00  0.00E+00  3.41E-07  1.28E-04  9.42E-03  0.00074
   1942.    5.149  1.98E-07  7.48E-05  3.88E-12  1.46E-09  0.00E+00  0.00E+00  1.98E-07  7.48E-05  9.42E-03  0.00000
   1944.    5.144  1.70E-07  6.42E-05  1.20E-15  4.52E-13  0.00E+00  0.00E+00  1.70E-07  6.42E-05  9.42E-03  0.00000
   1946.    5.139  2.22E-07  8.42E-05  1.51E-10  5.70E-08  0.00E+00  0.00E+00  2.23E-07  8.43E-05  9.42E-03  0.00020
   1948.    5.133  3.47E-07  1.32E-04  1.39E-09  5.28E-07  0.00E+00  0.00E+00  3.48E-07  1.32E-04  9.42E-03  0.00182
   1950.    5.128  4.18E-07  1.59E-04  9.05E-09  3.44E-06  0.00E+00  0.00E+00  4.27E-07  1.63E-04  9.42E-03  0.01192
   1952.    5.123  4.36E-07  1.66E-04  1.89E-08  7.21E-06  0.00E+00  0.00E+00  4.54E-07  1.73E-04  9.43E-03  0.02501
   1954.    5.118  3.45E-07  1.32E-04  8.13E-09  3.10E-06  0.00E+00  0.00E+00  3.54E-07  1.35E-04  9.43E-03  0.01076
   1956.    5.112  3.16E-07  1.21E-04  1.61E-09  6.14E-07  0.00E+00  0.00E+00  3.17E-07  1.21E-04  9.43E-03  0.00216
   1958.    5.107  3.98E-07  1.53E-04  1.48E-08  5.68E-06  0.00E+00  0.00E+00  4.13E-07  1.58E-04  9.43E-03  0.02001
   1960.    5.102  3.77E-07  1.45E-04  1.47E-08  5.65E-06  0.00E+00  0.00E+00  3.92E-07  1.51E-04  9.43E-03  0.01989
   1962.    5.097  3.63E-07  1.40E-04  6.62E-09  2.55E-06  0.00E+00  0.00E+00  3.70E-07  1.42E-04  9.43E-03  0.00905
   1964.    5.092  3.80E-07  1.46E-04  7.41E-09  2.86E-06  0.00E+00  0.00E+00  3.87E-07  1.49E-04  9.43E-03  0.01016
   1966.    5.086  2.36E-07  9.11E-05  1.03E-09  3.97E-07  0.00E+00  0.00E+00  2.37E-07  9.15E-05  9.43E-03  0.00141
   1968.    5.081  2.44E-07  9.44E-05  1.02E-09  3.97E-07  0.00E+00  0.00E+00  2.45E-07  9.48E-05  9.43E-03  0.00143
   1970.    5.076  3.89E-07  1.51E-04  2.48E-08  9.62E-06  0.00E+00  0.00E+00  4.14E-07  1.61E-04  9.43E-03  0.03485
   1972.    5.071  4.24E-07  1.65E-04  8.25E-08  3.21E-05  0.00E+00  0.00E+00  5.06E-07  1.97E-04  9.43E-03  0.11646
   1974.    5.066  4.03E-07  1.57E-04  1.04E-07  4.04E-05  0.00E+00  0.00E+00  5.07E-07  1.98E-04  9.43E-03  0.14722
   1976.    5.061  3.85E-07  1.50E-04  6.72E-08  2.63E-05  0.00E+00  0.00E+00  4.52E-07  1.76E-04  9.43E-03  0.09598
   1978.    5.056  3.88E-07  1.52E-04  1.07E-07  4.20E-05  0.00E+00  0.00E+00  4.96E-07  1.94E-04  9.44E-03  0.15450
   1980.    5.051  3.84E-07  1.50E-04  1.32E-07  5.16E-05  0.00E+00  0.00E+00  5.15E-07  2.02E-04  9.44E-03  0.19031
   1982.    5.045  3.95E-07  1.55E-04  9.79E-08  3.85E-05  0.00E+00  0.00E+00  4.93E-07  1.94E-04  9.44E-03  0.14265
   1984.    5.040  4.05E-07  1.59E-04  7.28E-08  2.87E-05  0.00E+00  0.00E+00  4.78E-07  1.88E-04  9.44E-03  0.10661
   1986.    5.035  3.62E-07  1.43E-04  2.53E-08  9.98E-06  0.00E+00  0.00E+00  3.87E-07  1.53E-04  9.44E-03  0.03722
   1988.    5.030  2.60E-07  1.03E-04  2.18E-09  8.61E-07  0.00E+00  0.00E+00  2.63E-07  1.04E-04  9.44E-03  0.00322
   1990.    5.025  2.32E-07  9.19E-05  2.30E-11  9.10E-09  0.00E+00  0.00E+00  2.32E-07  9.19E-05  9.44E-03  0.00003
   1992.    5.020  1.77E-07  7.01E-05  3.68E-12  1.46E-09  0.00E+00  0.00E+00  1.77E-07  7.01E-05  9.44E-03  0.00001
   1994.    5.015  2.77E-07  1.10E-04  6.23E-09  2.48E-06  0.00E+00  0.00E+00  2.83E-07  1.12E-04  9.44E-03  0.00950
   1996.    5.010  3.81E-07  1.52E-04  2.55E-08  1.02E-05  0.00E+00  0.00E+00  4.07E-07  1.62E-04  9.44E-03  0.03896
   1998.    5.005  3.36E-07  1.34E-04  1.92E-08  7.68E-06  0.00E+00  0.00E+00  3.55E-07  1.42E-04  9.44E-03  0.02949
   2000.    5.000  3.33E-07  1.33E-04  5.42E-08  2.17E-05  0.00E+00  0.00E+00  3.87E-07  1.55E-04  9.44E-03  0.08403
  iv         2005
1                                             RADIANCE(WATTS/CM2-STER-XXX)
0  FREQ   WAVLEN    PATH THERMAL      SURFACE EMISSION    SURFACE REFLECTED     TOTAL RADIANCE   INTEGRAL    TOTAL
  (CM-1) (MICRN)    (CM-1)   (MICRN)    (CM-1)   (MICRN)    (CM-1)   (MICRN)    (CM-1)   (MICRN)    (CM-1)   TRANS

   2002.    4.995  3.52E-07  1.41E-04  1.36E-07  5.44E-05  0.00E+00  0.00E+00  4.88E-07  1.96E-04  9.44E-03  0.21149
   2004.    4.990  3.39E-07  1.36E-04  1.59E-07  6.39E-05  0.00E+00  0.00E+00  4.98E-07  2.00E-04  9.45E-03  0.24926
   2006.    4.985  3.39E-07  1.36E-04  8.83E-08  3.55E-05  0.00E+00  0.00E+00  4.27E-07  1.72E-04  9.45E-03  0.13886
   2008.    4.980  3.08E-07  1.24E-04  1.56E-08  6.31E-06  0.00E+00  0.00E+00  3.23E-07  1.30E-04  9.45E-03  0.02478
   2010.    4.975  3.32E-07  1.34E-04  5.21E-08  2.11E-05  0.00E+00  0.00E+00  3.84E-07  1.55E-04  9.45E-03  0.08361
   2012.    4.970  3.53E-07  1.43E-04  1.06E-07  4.30E-05  0.00E+00  0.00E+00  4.59E-07  1.86E-04  9.45E-03  0.17098
   2014.    4.965  3.43E-07  1.39E-04  6.37E-08  2.58E-05  0.00E+00  0.00E+00  4.06E-07  1.65E-04  9.45E-03  0.10285
   2016.    4.960  2.40E-07  9.74E-05  8.84E-09  3.59E-06  0.00E+00  0.00E+00  2.48E-07  1.01E-04  9.45E-03  0.01432
   2018.    4.955  1.83E-07  7.44E-05  7.27E-12  2.96E-09  0.00E+00  0.00E+00  1.83E-07  7.45E-05  9.45E-03  0.00001
   2020.    4.950  2.79E-07  1.14E-04  1.40E-08  5.69E-06  0.00E+00  0.00E+00  2.93E-07  1.19E-04  9.45E-03  0.02317
   2022.    4.946  3.28E-07  1.34E-04  2.70E-08  1.10E-05  0.00E+00  0.00E+00  3.55E-07  1.45E-04  9.45E-03  0.04483
   2024.    4.941  3.23E-07  1.32E-04  3.71E-08  1.52E-05  0.00E+00  0.00E+00  3.61E-07  1.48E-04  9.45E-03  0.06227
   2026.    4.936  3.13E-07  1.29E-04  4.51E-08  1.85E-05  0.00E+00  0.00E+00  3.58E-07  1.47E-04  9.45E-03  0.07608
   2028.    4.931  2.84E-07  1.17E-04  1.06E-07  4.35E-05  0.00E+00  0.00E+00  3.90E-07  1.60E-04  9.45E-03  0.17991
   2030.    4.926  2.57E-07  1.06E-04  2.18E-07  9.00E-05  0.00E+00  0.00E+00  4.75E-07  1.96E-04  9.46E-03  0.37356
   2032.    4.921  2.38E-07  9.81E-05  2.36E-07  9.73E-05  0.00E+00  0.00E+00  4.73E-07  1.95E-04  9.46E-03  0.40526
   2034.    4.916  2.68E-07  1.11E-04  1.62E-07  6.69E-05  0.00E+00  0.00E+00  4.30E-07  1.78E-04  9.46E-03  0.28000
   2036.    4.912  2.71E-07  1.12E-04  1.31E-07  5.44E-05  0.00E+00  0.00E+00  4.02E-07  1.67E-04  9.46E-03  0.22859
   2038.    4.907  2.79E-07  1.16E-04  7.05E-08  2.93E-05  0.00E+00  0.00E+00  3.49E-07  1.45E-04  9.46E-03  0.12356
   2040.    4.902  2.57E-07  1.07E-04  2.89E-08  1.20E-05  0.00E+00  0.00E+00  2.86E-07  1.19E-04  9.46E-03  0.05090
   2042.    4.897  2.26E-07  9.40E-05  2.26E-09  9.44E-07  0.00E+00  0.00E+00  2.28E-07  9.50E-05  9.46E-03  0.00402
   2044.    4.892  2.49E-07  1.04E-04  3.46E-08  1.45E-05  0.00E+00  0.00E+00  2.84E-07  1.19E-04  9.46E-03  0.06227
   2046.    4.888  2.61E-07  1.09E-04  6.90E-08  2.89E-05  0.00E+00  0.00E+00  3.30E-07  1.38E-04  9.46E-03  0.12443
   2048.    4.883  2.23E-07  9.37E-05  1.16E-07  4.87E-05  0.00E+00  0.00E+00  3.40E-07  1.42E-04  9.46E-03  0.21135
   2050.    4.878  1.92E-07  8.06E-05  1.63E-07  6.86E-05  0.00E+00  0.00E+00  3.55E-07  1.49E-04  9.46E-03  0.29829
   2052.    4.873  1.90E-07  7.99E-05  1.45E-07  6.09E-05  0.00E+00  0.00E+00  3.34E-07  1.41E-04  9.46E-03  0.26598
   2054.    4.869  1.86E-07  7.84E-05  1.42E-07  5.99E-05  0.00E+00  0.00E+00  3.28E-07  1.38E-04  9.46E-03  0.26329
   2056.    4.864  1.70E-07  7.19E-05  1.67E-07  7.07E-05  0.00E+00  0.00E+00  3.37E-07  1.43E-04  9.46E-03  0.31198
   2058.    4.859  1.85E-07  7.85E-05  1.23E-07  5.22E-05  0.00E+00  0.00E+00  3.09E-07  1.31E-04  9.46E-03  0.23119
   2060.    4.854  1.98E-07  8.42E-05  5.36E-08  2.28E-05  0.00E+00  0.00E+00  2.52E-07  1.07E-04  9.47E-03  0.10128
   2062.    4.850  2.04E-07  8.67E-05  5.02E-08  2.13E-05  0.00E+00  0.00E+00  2.54E-07  1.08E-04  9.47E-03  0.09556
   2064.    4.845  1.67E-07  7.13E-05  2.08E-08  8.84E-06  0.00E+00  0.00E+00  1.88E-07  8.02E-05  9.47E-03  0.03955
   2066.    4.840  1.74E-07  7.41E-05  2.11E-08  9.00E-06  0.00E+00  0.00E+00  1.95E-07  8.31E-05  9.47E-03  0.04087
   2068.    4.836  1.93E-07  8.25E-05  9.03E-08  3.86E-05  0.00E+00  0.00E+00  2.83E-07  1.21E-04  9.47E-03  0.17585
   2070.    4.831  1.61E-07  6.90E-05  1.58E-07  6.78E-05  0.00E+00  0.00E+00  3.19E-07  1.37E-04  9.47E-03  0.30954
   2072.    4.826  1.78E-07  7.64E-05  1.23E-07  5.27E-05  0.00E+00  0.00E+00  3.01E-07  1.29E-04  9.47E-03  0.24128
   2074.    4.822  2.03E-07  8.72E-05  7.45E-08  3.21E-05  0.00E+00  0.00E+00  2.77E-07  1.19E-04  9.47E-03  0.14774
   2076.    4.817  1.47E-07  6.32E-05  6.58E-08  2.83E-05  0.00E+00  0.00E+00  2.12E-07  9.15E-05  9.47E-03  0.13109
   2078.    4.812  1.02E-07  4.41E-05  3.30E-08  1.43E-05  0.00E+00  0.00E+00  1.35E-07  5.84E-05  9.47E-03  0.06640
   2080.    4.808  1.61E-07  6.97E-05  8.26E-08  3.57E-05  0.00E+00  0.00E+00  2.44E-07  1.05E-04  9.47E-03  0.16740
   2082.    4.803  1.63E-07  7.07E-05  1.40E-07  6.07E-05  0.00E+00  0.00E+00  3.03E-07  1.31E-04  9.47E-03  0.28565
   2084.    4.798  1.45E-07  6.32E-05  1.87E-07  8.13E-05  0.00E+00  0.00E+00  3.33E-07  1.44E-04  9.47E-03  0.38375
   2086.    4.794  1.76E-07  7.66E-05  1.32E-07  5.76E-05  0.00E+00  0.00E+00  3.08E-07  1.34E-04  9.47E-03  0.27260
   2088.    4.789  2.13E-07  9.29E-05  5.12E-08  2.23E-05  0.00E+00  0.00E+00  2.64E-07  1.15E-04  9.47E-03  0.10612
   2090.    4.785  2.01E-07  8.76E-05  2.90E-08  1.27E-05  0.00E+00  0.00E+00  2.30E-07  1.00E-04  9.47E-03  0.06078
   2092.    4.780  1.89E-07  8.26E-05  6.32E-08  2.77E-05  0.00E+00  0.00E+00  2.52E-07  1.10E-04  9.47E-03  0.13342
   2094.    4.776  1.67E-07  7.33E-05  1.07E-07  4.68E-05  0.00E+00  0.00E+00  2.74E-07  1.20E-04  9.47E-03  0.22671
   2096.    4.771  1.59E-07  6.99E-05  1.57E-07  6.88E-05  0.00E+00  0.00E+00  3.16E-07  1.39E-04  9.47E-03  0.33478
   2098.    4.766  1.51E-07  6.66E-05  1.74E-07  7.64E-05  0.00E+00  0.00E+00  3.25E-07  1.43E-04  9.48E-03  0.37331
   2100.    4.762  1.49E-07  6.58E-05  1.70E-07  7.52E-05  0.00E+00  0.00E+00  3.20E-07  1.41E-04  9.48E-03  0.36913
  iv         2105
1                                             RADIANCE(WATTS/CM2-STER-XXX)
0  FREQ   WAVLEN    PATH THERMAL      SURFACE EMISSION    SURFACE REFLECTED     TOTAL RADIANCE   INTEGRAL    TOTAL
  (CM-1) (MICRN)    (CM-1)   (MICRN)    (CM-1)   (MICRN)    (CM-1)   (MICRN)    (CM-1)   (MICRN)    (CM-1)   TRANS

   2102.    4.757  1.19E-07  5.26E-05  2.26E-07  9.99E-05  0.00E+00  0.00E+00  3.45E-07  1.53E-04  9.48E-03  0.49306
   2104.    4.753  1.07E-07  4.74E-05  2.40E-07  1.06E-04  0.00E+00  0.00E+00  3.47E-07  1.54E-04  9.48E-03  0.52618
   2106.    4.748  1.41E-07  6.24E-05  1.64E-07  7.27E-05  0.00E+00  0.00E+00  3.04E-07  1.35E-04  9.48E-03  0.36181
   2108.    4.744  1.36E-07  6.03E-05  1.69E-07  7.50E-05  0.00E+00  0.00E+00  3.04E-07  1.35E-04  9.48E-03  0.37574
   2110.    4.739  9.96E-08  4.43E-05  2.48E-07  1.10E-04  0.00E+00  0.00E+00  3.48E-07  1.55E-04  9.48E-03  0.55607
   2112.    4.735  1.20E-07  5.37E-05  2.34E-07  1.04E-04  0.00E+00  0.00E+00  3.55E-07  1.58E-04  9.48E-03  0.52786
   2114.    4.730  1.72E-07  7.70E-05  8.97E-08  4.01E-05  0.00E+00  0.00E+00  2.62E-07  1.17E-04  9.48E-03  0.20298
   2116.    4.726  1.65E-07  7.39E-05  8.81E-08  3.94E-05  0.00E+00  0.00E+00  2.53E-07  1.13E-04  9.48E-03  0.20224
   2118.    4.721  1.04E-07  4.67E-05  2.13E-07  9.55E-05  0.00E+00  0.00E+00  3.17E-07  1.42E-04  9.48E-03  0.49068
   2120.    4.717  1.02E-07  4.60E-05  2.03E-07  9.13E-05  0.00E+00  0.00E+00  3.05E-07  1.37E-04  9.48E-03  0.47036
   2122.    4.713  1.40E-07  6.32E-05  1.43E-07  6.45E-05  0.00E+00  0.00E+00  2.83E-07  1.28E-04  9.48E-03  0.33387
   2124.    4.708  1.45E-07  6.53E-05  1.32E-07  5.96E-05  0.00E+00  0.00E+00  2.77E-07  1.25E-04  9.48E-03  0.31060
   2126.    4.704  9.77E-08  4.41E-05  2.15E-07  9.71E-05  0.00E+00  0.00E+00  3.13E-07  1.41E-04  9.48E-03  0.50903
   2128.    4.699  7.82E-08  3.54E-05  2.41E-07  1.09E-04  0.00E+00  0.00E+00  3.19E-07  1.45E-04  9.48E-03  0.57399
   2130.    4.695  8.93E-08  4.05E-05  2.22E-07  1.01E-04  0.00E+00  0.00E+00  3.11E-07  1.41E-04  9.49E-03  0.53235
   2132.    4.690  7.42E-08  3.37E-05  2.88E-07  1.31E-04  0.00E+00  0.00E+00  3.62E-07  1.64E-04  9.49E-03  0.69484
   2134.    4.686  8.84E-08  4.03E-05  2.74E-07  1.25E-04  0.00E+00  0.00E+00  3.62E-07  1.65E-04  9.49E-03  0.66510
   2136.    4.682  1.61E-07  7.33E-05  1.18E-07  5.37E-05  0.00E+00  0.00E+00  2.78E-07  1.27E-04  9.49E-03  0.28732
   2138.    4.677  1.99E-07  9.09E-05  5.46E-08  2.50E-05  0.00E+00  0.00E+00  2.54E-07  1.16E-04  9.49E-03  0.13492
   2140.    4.673  1.63E-07  7.47E-05  1.48E-07  6.77E-05  0.00E+00  0.00E+00  3.11E-07  1.42E-04  9.49E-03  0.36762
   2142.    4.669  1.04E-07  4.75E-05  2.56E-07  1.18E-04  0.00E+00  0.00E+00  3.60E-07  1.65E-04  9.49E-03  0.64088
   2144.    4.664  1.17E-07  5.36E-05  2.18E-07  1.00E-04  0.00E+00  0.00E+00  3.34E-07  1.54E-04  9.49E-03  0.54727
   2146.    4.660  1.64E-07  7.53E-05  1.37E-07  6.31E-05  0.00E+00  0.00E+00  3.00E-07  1.38E-04  9.49E-03  0.34690
   2148.    4.655  1.40E-07  6.46E-05  1.84E-07  8.49E-05  0.00E+00  0.00E+00  3.24E-07  1.49E-04  9.49E-03  0.47002
   2150.    4.651  9.56E-08  4.42E-05  2.54E-07  1.18E-04  0.00E+00  0.00E+00  3.50E-07  1.62E-04  9.49E-03  0.65342
   2152.    4.647  1.11E-07  5.12E-05  2.20E-07  1.02E-04  0.00E+00  0.00E+00  3.30E-07  1.53E-04  9.49E-03  0.56862
   2154.    4.643  1.07E-07  4.95E-05  2.22E-07  1.03E-04  0.00E+00  0.00E+00  3.29E-07  1.53E-04  9.49E-03  0.57857
   2156.    4.638  1.00E-07  4.67E-05  2.34E-07  1.09E-04  0.00E+00  0.00E+00  3.34E-07  1.55E-04  9.49E-03  0.61364
   2158.    4.634  8.41E-08  3.92E-05  2.54E-07  1.18E-04  0.00E+00  0.00E+00  3.39E-07  1.58E-04  9.49E-03  0.67217
   2160.    4.630  1.02E-07  4.77E-05  2.23E-07  1.04E-04  0.00E+00  0.00E+00  3.25E-07  1.52E-04  9.50E-03  0.59302
   2162.    4.625  1.49E-07  6.95E-05  1.31E-07  6.13E-05  0.00E+00  0.00E+00  2.80E-07  1.31E-04  9.50E-03  0.35096
   2164.    4.621  1.03E-07  4.80E-05  2.09E-07  9.77E-05  0.00E+00  0.00E+00  3.11E-07  1.46E-04  9.50E-03  0.56344
   2166.    4.617  6.37E-08  2.99E-05  2.75E-07  1.29E-04  0.00E+00  0.00E+00  3.38E-07  1.59E-04  9.50E-03  0.74538
   2168.    4.613  5.19E-08  2.44E-05  2.88E-07  1.35E-04  0.00E+00  0.00E+00  3.40E-07  1.60E-04  9.50E-03  0.78717
   2170.    4.608  6.58E-08  3.10E-05  2.60E-07  1.22E-04  0.00E+00  0.00E+00  3.26E-07  1.53E-04  9.50E-03  0.71486
   2172.    4.604  8.38E-08  3.95E-05  2.32E-07  1.09E-04  0.00E+00  0.00E+00  3.16E-07  1.49E-04  9.50E-03  0.64254
   2174.    4.600  5.87E-08  2.77E-05  2.69E-07  1.27E-04  0.00E+00  0.00E+00  3.28E-07  1.55E-04  9.50E-03  0.75159
   2176.    4.596  4.85E-08  2.30E-05  2.81E-07  1.33E-04  0.00E+00  0.00E+00  3.29E-07  1.56E-04  9.50E-03  0.78872
   2178.    4.591  4.71E-08  2.23E-05  2.80E-07  1.33E-04  0.00E+00  0.00E+00  3.27E-07  1.55E-04  9.50E-03  0.79216
   2180.    4.587  7.20E-08  3.42E-05  2.37E-07  1.12E-04  0.00E+00  0.00E+00  3.09E-07  1.47E-04  9.50E-03  0.67393
   2182.    4.583  7.09E-08  3.38E-05  2.36E-07  1.12E-04  0.00E+00  0.00E+00  3.07E-07  1.46E-04  9.50E-03  0.67775
   2184.    4.579  7.06E-08  3.37E-05  2.36E-07  1.13E-04  0.00E+00  0.00E+00  3.07E-07  1.46E-04  9.50E-03  0.68280
   2186.    4.575  1.05E-07  5.03E-05  1.77E-07  8.47E-05  0.00E+00  0.00E+00  2.83E-07  1.35E-04  9.50E-03  0.51569
   2188.    4.570  9.22E-08  4.41E-05  1.95E-07  9.34E-05  0.00E+00  0.00E+00  2.87E-07  1.38E-04  9.50E-03  0.57216
   2190.    4.566  6.25E-08  3.00E-05  2.42E-07  1.16E-04  0.00E+00  0.00E+00  3.05E-07  1.46E-04  9.50E-03  0.71430
   2192.    4.562  6.40E-08  3.07E-05  2.36E-07  1.13E-04  0.00E+00  0.00E+00  3.00E-07  1.44E-04  9.51E-03  0.70139
   2194.    4.558  6.49E-08  3.13E-05  2.30E-07  1.11E-04  0.00E+00  0.00E+00  2.95E-07  1.42E-04  9.51E-03  0.68910
   2196.    4.554  4.39E-08  2.12E-05  2.59E-07  1.25E-04  0.00E+00  0.00E+00  3.02E-07  1.46E-04  9.51E-03  0.77873
   2198.    4.550  5.93E-08  2.86E-05  2.33E-07  1.13E-04  0.00E+00  0.00E+00  2.92E-07  1.41E-04  9.51E-03  0.70621
   2200.    4.545  7.47E-08  3.61E-05  2.05E-07  9.92E-05  0.00E+00  0.00E+00  2.80E-07  1.35E-04  9.51E-03  0.62588
0INTEGRATED ABSORPTION FROM    2 TO 2200 CM-1 =   1897.44 CM-1
 AVERAGE TRANSMITTANCE =0.1367

0INTEGRATED RADIANCE =  9.507E-03 WATTS CM-2 STER-1
 MINIMUM RADIANCE    =  1.194E-09 WATTS CM-2 STER-1 (CM-1)-1 AT        2.0 CM-1
 MAXIMUM RADIANCE    =  1.277E-05 WATTS CM-2 STER-1 (CM-1)-1 AT      560.0 CM-1
 BOUNDARY TEMPERATURE =     300.46 K
 BOUNDARY EMISSIVITY =       0.971
0 CARD 5 *****    0


